File: Data/Raman/2018-3-21 - Pesticides 300uL/aluminum_RamanShift_01.txt
Data from aluminum_RamanShift_01.txt Node

Date: Wed Mar 21 14:59:27 IST 2018
User: aro
Spectrometer: QEPB0276
Trigger mode: 0
Integration Time (sec): 5.000000E0
Scans to average: 1
Electric dark correction enabled: true
Nonlinearity correction enabled: false
Boxcar width: 0
XAxis mode: Raman Shifts
Number of Pixels in Spectrum: 1044
>>>>>Begin Spectral Data<<<<<
160.701	1.8
184.826	17.8
208.845	69.8
232.758	72.8
256.565	76.8
280.267	88.8
303.865	86.8
327.359	90.8
350.751	90.8
374.04	96.8
397.228	90.8
420.315	138.8
443.302	99.8
466.189	85.8
488.978	89.8
511.668	69.8
534.261	47.8
556.756	43.8
579.155	37.8
601.459	39.8
623.667	36.8
645.781	49.8
667.8	34.8
689.726	29.8
711.56	30.8
733.301	27.8
754.951	33.8
776.509	35.8
797.977	36.8
819.355	35.8
840.644	38.8
861.844	26.8
882.955	31.8
903.979	21.8
924.916	26.8
945.766	23.8
966.529	23.8
987.208	27.8
1007.801	25.8
1028.309	26.8
1048.734	27.8
1069.075	23.8
1089.333	28.8
1109.509	22.8
1129.602	16.8
1149.614	28.8
1169.545	25.8
1189.395	25.8
1209.165	23.8
1228.856	26.8
1248.467	23.8
1268	18.8
1287.455	22.8
1306.832	15.8
1326.132	20.8
1345.354	20.8
1364.501	17.8
1383.572	19.8
1402.567	14.8
1421.487	13.8
1440.333	19.8
1459.104	18.8
1477.802	22.8
1496.426	18.8
1514.978	15.8
1533.457	17.8
1551.864	14.8
1570.199	18.8
1588.464	17.8
1606.657	18.8
1624.78	15.8
1642.834	17.8
1660.817	16.8
1678.732	14.8
1696.577	13.8
1714.355	21.8
1732.064	13.8
1749.705	16.8
1767.28	12.8
1784.787	12.8
1802.228	12.8
1819.603	6.8
1836.913	9.8
1854.156	10.8
1871.335	11.8
1888.449	13.8
1905.499	12.8
1922.485	13.8
1939.408	10.8
1956.267	12.8
1973.063	11.8
1989.797	10.8
2006.469	8.8
2023.078	9.8
2039.627	0.8
2056.114	11.8
2072.54	13.8
2088.906	3.8
2105.211	8.8
2121.457	7.8
2137.643	3.8
2153.77	7.8
2169.838	5.8
2185.848	8.8
2201.799	9.8
2217.693	5.8
2233.529	7.8
2249.307	6.8
2265.029	5.8
2280.694	1.8
2296.302	2.8
2311.854	5.8
2327.351	3.8
2342.792	6.8
2358.178	8.8
2373.508	-0.2
2388.785	3.8
2404.007	5.8
2419.174	1.8
2434.289	4.8
2449.349	1.8
2464.356	2.8
2479.311	5.8
2494.213	-1.2
2509.062	4.8
2523.859	1.8
2538.605	0.8
2553.299	1.8
2567.941	1.8
2582.533	3.8
2597.073	6.8
2611.564	5.8
2626.004	5.8
2640.394	-2.2
2654.734	0.8
2669.025	0.8
2683.266	-1.2
2697.458	1.8
2711.602	-0.2
2725.697	-0.2
2739.744	0.8
2753.743	1.8
2767.695	1.8
2781.598	-4.2
2795.455	3.8
2809.264	1.8
2823.026	-4.2
2836.742	7.8
2850.412	2.8
2864.035	1.8
2877.613	6.8
2891.145	-7.2
2904.631	2.8
2918.073	-0.2
2931.469	-0.2
2944.821	2.8
2958.128	-0.2
2971.39	1.8
2984.609	-4.2
2997.784	-7.2
3010.915	-3.2
3024.002	-1.2
3037.046	5.8
3050.048	-2.2
3063.006	0.8
3075.922	-5.2
3088.795	-0.2
3101.627	-0.2
3114.416	-1.2
3127.163	-0.2
3139.869	0.8
3152.533	-1.2
3165.157	-4.2
3177.739	-2.2
3190.28	-3.2
3202.781	-5.2
3215.241	0.8
3227.661	1.8
3240.041	-5.2
3252.382	-2.2
3264.682	-2.2
3276.943	-3.2
3289.165	-1.2
3301.348	-4.2
3313.492	-2.2
3325.597	-2.2
3337.663	-6.2
3349.691	-1.2
3361.681	-2.2
3373.633	-1.2
3385.547	-1.2
3397.424	-2.2
3409.263	-6.2
3421.065	1.8
3432.829	-3.2
3444.557	-3.2
3456.247	-2.2
3467.902	-0.2
3479.519	1.8
3491.101	-5.2
3502.646	-2.2
3514.155	-2.2
3525.629	-2.2
3537.067	0.8
3548.469	-3.2
3559.837	-1.2
3571.169	3.8
3582.466	-5.2
3593.728	-3.2
3604.956	1.8
3616.149	-8.2
3627.307	1.8
3638.432	-1.2
3649.523	-1.2
3660.579	-0.2
3671.602	1.8
3682.591	-1.2
3693.547	-9.2
3704.47	-3.2
3715.359	-5.2
3726.216	-5.2
3737.039	-4.2
3747.83	-5.2
3758.589	-2.2
3769.315	-4.2
3780.008	-4.2
3790.67	-6.2
3801.299	-1.2
3811.897	-5.2
3822.463	-0.2
3832.998	-1.2
3843.501	-3.2
3853.973	-1.2
3864.414	-3.2
3874.823	-1.2
3885.202	-2.2
3895.55	-5.2
3905.868	-3.2
3916.155	-6.2
3926.411	-4.2
3936.638	-4.2
3946.834	-5.2
3957	-1.2
3967.137	-3.2
3977.244	-4.2
3987.321	-5.2
3997.369	-5.2
4007.388	-0.2
4017.377	-1.2
4027.338	0.8
4037.269	-6.2
4047.172	-6.2
4057.046	-7.2
4066.891	-3.2
4076.708	-0.2
4086.497	-0.2
4096.257	-5.2
4105.989	5.8
4115.694	2.8
4125.37	-4.2
4135.019	-6.2
4142.237	-4.2