File: Data/Raman/2018-3-21 - Pesticides 300uL/aluminum_RamanShift_03.txt
Data from aluminum_RamanShift_03.txt Node

Date: Wed Mar 21 14:59:37 IST 2018
User: aro
Spectrometer: QEPB0276
Trigger mode: 0
Integration Time (sec): 5.000000E0
Scans to average: 1
Electric dark correction enabled: true
Nonlinearity correction enabled: false
Boxcar width: 0
XAxis mode: Raman Shifts
Number of Pixels in Spectrum: 1044
>>>>>Begin Spectral Data<<<<<
160.701	1.1
184.826	16.1
208.845	75.1
232.758	74.1
256.565	79.1
280.267	82.1
303.865	81.1
327.359	90.1
350.751	94.1
374.04	101.1
397.228	102.1
420.315	140.1
443.302	96.1
466.189	95.1
488.978	90.1
511.668	68.1
534.261	50.1
556.756	43.1
579.155	38.1
601.459	38.1
623.667	37.1
645.781	49.1
667.8	33.1
689.726	29.1
711.56	30.1
733.301	33.1
754.951	37.1
776.509	38.1
797.977	34.1
819.355	35.1
840.644	33.1
861.844	31.1
882.955	30.1
903.979	27.1
924.916	30.1
945.766	26.1
966.529	22.1
987.208	22.1
1007.801	21.1
1028.309	24.1
1048.734	27.1
1069.075	22.1
1089.333	27.1
1109.509	23.1
1129.602	20.1
1149.614	25.1
1169.545	21.1
1189.395	23.1
1209.165	21.1
1228.856	25.1
1248.467	27.1
1268	17.1
1287.455	21.1
1306.832	18.1
1326.132	18.1
1345.354	19.1
1364.501	16.1
1383.572	22.1
1402.567	18.1
1421.487	13.1
1440.333	20.1
1459.104	19.1
1477.802	17.1
1496.426	17.1
1514.978	19.1
1533.457	20.1
1551.864	15.1
1570.199	20.1
1588.464	13.1
1606.657	14.1
1624.78	16.1
1642.834	16.1
1660.817	21.1
1678.732	16.1
1696.577	16.1
1714.355	18.1
1732.064	15.1
1749.705	10.1
1767.28	14.1
1784.787	16.1
1802.228	10.1
1819.603	10.1
1836.913	12.1
1854.156	9.1
1871.335	8.1
1888.449	12.1
1905.499	12.1
1922.485	13.1
1939.408	14.1
1956.267	8.1
1973.063	10.1
1989.797	8.1
2006.469	9.1
2023.078	11.1
2039.627	7.1
2056.114	9.1
2072.54	12.1
2088.906	4.1
2105.211	9.1
2121.457	9.1
2137.643	6.1
2153.77	9.1
2169.838	10.1
2185.848	9.1
2201.799	2.1
2217.693	4.1
2233.529	6.1
2249.307	8.1
2265.029	7.1
2280.694	4.1
2296.302	3.1
2311.854	6.1
2327.351	1.1
2342.792	4.1
2358.178	7.1
2373.508	1.1
2388.785	8.1
2404.007	5.1
2419.174	5.1
2434.289	5.1
2449.349	-0.9
2464.356	5.1
2479.311	5.1
2494.213	4.1
2509.062	8.1
2523.859	4.1
2538.605	4.1
2553.299	2.1
2567.941	0.1
2582.533	4.1
2597.073	4.1
2611.564	0.1
2626.004	8.1
2640.394	2.1
2654.734	2.1
2669.025	3.1
2683.266	-1.9
2697.458	2.1
2711.602	-2.9
2725.697	0.1
2739.744	3.1
2753.743	2.1
2767.695	1.1
2781.598	-0.9
2795.455	0.1
2809.264	0.1
2823.026	-1.9
2836.742	7.1
2850.412	2.1
2864.035	4.1
2877.613	10.1
2891.145	-2.9
2904.631	-0.9
2918.073	-0.9
2931.469	-0.9
2944.821	-0.9
2958.128	1.1
2971.39	1.1
2984.609	-2.9
2997.784	-4.9
3010.915	-1.9
3024.002	-2.9
3037.046	1.1
3050.048	1.1
3063.006	2.1
3075.922	-1.9
3088.795	-3.9
3101.627	0.1
3114.416	-5.9
3127.163	0.1
3139.869	1.1
3152.533	0.1
3165.157	1.1
3177.739	-1.9
3190.28	-3.9
3202.781	-4.9
3215.241	-6.9
3227.661	0.1
3240.041	-4.9
3252.382	-3.9
3264.682	-1.9
3276.943	-4.9
3289.165	-4.9
3301.348	-5.9
3313.492	0.1
3325.597	-2.9
3337.663	-1.9
3349.691	-1.9
3361.681	-1.9
3373.633	1.1
3385.547	-2.9
3397.424	-3.9
3409.263	-5.9
3421.065	1.1
3432.829	-4.9
3444.557	-0.9
3456.247	-0.9
3467.902	-1.9
3479.519	-0.9
3491.101	-2.9
3502.646	0.1
3514.155	2.1
3525.629	0.1
3537.067	-0.9
3548.469	-6.9
3559.837	-2.9
3571.169	3.1
3582.466	-1.9
3593.728	-0.9
3604.956	2.1
3616.149	-4.9
3627.307	0.1
3638.432	-5.9
3649.523	-3.9
3660.579	2.1
3671.602	-0.9
3682.591	1.1
3693.547	-6.9
3704.47	-2.9
3715.359	-2.9
3726.216	-6.9
3737.039	-1.9
3747.83	-2.9
3758.589	-3.9
3769.315	0.1
3780.008	-1.9
3790.67	-4.9
3801.299	-1.9
3811.897	-2.9
3822.463	-2.9
3832.998	-1.9
3843.501	-1.9
3853.973	-0.9
3864.414	-2.9
3874.823	-0.9
3885.202	2.1
3895.55	-0.9
3905.868	-0.9
3916.155	-2.9
3926.411	-5.9
3936.638	-3.9
3946.834	-3.9
3957	-2.9
3967.137	-2.9
3977.244	-2.9
3987.321	-0.9
3997.369	-3.9
4007.388	-1.9
4017.377	-1.9
4027.338	2.1
4037.269	-5.9
4047.172	-3.9
4057.046	-6.9
4066.891	-4.9
4076.708	-0.9
4086.497	0.1
4096.257	-4.9
4105.989	8.1
4115.694	1.1
4125.37	0.1
4135.019	-3.9
4142.237	-1.9