File: Data/Raman/2018-3-21 - Pesticides 300uL/aluminum_RamanShift_02.txt
Data from aluminum_RamanShift_02.txt Node

Date: Wed Mar 21 14:59:32 IST 2018
User: aro
Spectrometer: QEPB0276
Trigger mode: 0
Integration Time (sec): 5.000000E0
Scans to average: 1
Electric dark correction enabled: true
Nonlinearity correction enabled: false
Boxcar width: 0
XAxis mode: Raman Shifts
Number of Pixels in Spectrum: 1044
>>>>>Begin Spectral Data<<<<<
160.701	1.9
184.826	17.9
208.845	73.9
232.758	72.9
256.565	77.9
280.267	81.9
303.865	83.9
327.359	91.9
350.751	94.9
374.04	97.9
397.228	92.9
420.315	137.9
443.302	101.9
466.189	95.9
488.978	91.9
511.668	59.9
534.261	44.9
556.756	42.9
579.155	34.9
601.459	38.9
623.667	35.9
645.781	45.9
667.8	33.9
689.726	28.9
711.56	25.9
733.301	29.9
754.951	34.9
776.509	34.9
797.977	34.9
819.355	34.9
840.644	29.9
861.844	23.9
882.955	28.9
903.979	22.9
924.916	25.9
945.766	29.9
966.529	24.9
987.208	18.9
1007.801	20.9
1028.309	22.9
1048.734	27.9
1069.075	19.9
1089.333	27.9
1109.509	26.9
1129.602	15.9
1149.614	26.9
1169.545	19.9
1189.395	21.9
1209.165	20.9
1228.856	21.9
1248.467	25.9
1268	17.9
1287.455	18.9
1306.832	16.9
1326.132	17.9
1345.354	16.9
1364.501	9.9
1383.572	17.9
1402.567	15.9
1421.487	13.9
1440.333	17.9
1459.104	17.9
1477.802	18.9
1496.426	14.9
1514.978	13.9
1533.457	16.9
1551.864	12.9
1570.199	18.9
1588.464	13.9
1606.657	12.9
1624.78	9.9
1642.834	11.9
1660.817	15.9
1678.732	9.9
1696.577	11.9
1714.355	14.9
1732.064	10.9
1749.705	12.9
1767.28	14.9
1784.787	11.9
1802.228	10.9
1819.603	6.9
1836.913	7.9
1854.156	8.9
1871.335	8.9
1888.449	9.9
1905.499	10.9
1922.485	10.9
1939.408	4.9
1956.267	5.9
1973.063	12.9
1989.797	13.9
2006.469	5.9
2023.078	8.9
2039.627	2.9
2056.114	9.9
2072.54	8.9
2088.906	1.9
2105.211	9.9
2121.457	7.9
2137.643	4.9
2153.77	6.9
2169.838	4.9
2185.848	3.9
2201.799	3.9
2217.693	4.9
2233.529	6.9
2249.307	6.9
2265.029	3.9
2280.694	1.9
2296.302	-0.1
2311.854	3.9
2327.351	2.9
2342.792	1.9
2358.178	4.9
2373.508	0.9
2388.785	4.9
2404.007	3.9
2419.174	0.9
2434.289	6.9
2449.349	0.9
2464.356	4.9
2479.311	5.9
2494.213	2.9
2509.062	1.9
2523.859	-1.1
2538.605	1.9
2553.299	2.9
2567.941	2.9
2582.533	2.9
2597.073	2.9
2611.564	-1.1
2626.004	0.9
2640.394	-2.1
2654.734	0.9
2669.025	0.9
2683.266	-1.1
2697.458	-1.1
2711.602	-3.1
2725.697	-3.1
2739.744	-2.1
2753.743	2.9
2767.695	2.9
2781.598	1.9
2795.455	0.9
2809.264	2.9
2823.026	-5.1
2836.742	1.9
2850.412	-3.1
2864.035	-0.1
2877.613	3.9
2891.145	-3.1
2904.631	3.9
2918.073	-4.1
2931.469	-6.1
2944.821	-3.1
2958.128	-2.1
2971.39	-2.1
2984.609	-3.1
2997.784	-5.1
3010.915	-1.1
3024.002	-4.1
3037.046	-1.1
3050.048	-4.1
3063.006	-4.1
3075.922	-4.1
3088.795	0.9
3101.627	2.9
3114.416	-2.1
3127.163	-0.1
3139.869	-6.1
3152.533	-5.1
3165.157	-3.1
3177.739	-6.1
3190.28	-4.1
3202.781	-3.1
3215.241	-1.1
3227.661	-0.1
3240.041	-8.1
3252.382	-7.1
3264.682	-6.1
3276.943	-7.1
3289.165	-4.1
3301.348	-5.1
3313.492	-2.1
3325.597	-6.1
3337.663	-6.1
3349.691	-4.1
3361.681	-6.1
3373.633	-1.1
3385.547	-1.1
3397.424	-3.1
3409.263	-5.1
3421.065	-0.1
3432.829	-5.1
3444.557	-4.1
3456.247	-5.1
3467.902	-2.1
3479.519	0.9
3491.101	-4.1
3502.646	-6.1
3514.155	-3.1
3525.629	-6.1
3537.067	-4.1
3548.469	-3.1
3559.837	-1.1
3571.169	0.9
3582.466	-5.1
3593.728	-4.1
3604.956	-0.1
3616.149	-7.1
3627.307	-1.1
3638.432	-6.1
3649.523	-2.1
3660.579	-0.1
3671.602	-4.1
3682.591	-3.1
3693.547	-10.1
3704.47	-6.1
3715.359	-3.1
3726.216	-6.1
3737.039	-5.1
3747.83	-7.1
3758.589	-6.1
3769.315	-5.1
3780.008	-6.1
3790.67	-4.1
3801.299	-4.1
3811.897	-7.1
3822.463	-4.1
3832.998	-7.1
3843.501	-6.1
3853.973	-3.1
3864.414	-3.1
3874.823	-1.1
3885.202	-0.1
3895.55	-7.1
3905.868	-6.1
3916.155	-8.1
3926.411	-6.1
3936.638	-3.1
3946.834	-8.1
3957	-2.1
3967.137	-3.1
3977.244	-4.1
3987.321	-6.1
3997.369	-6.1
4007.388	-3.1
4017.377	-7.1
4027.338	1.9
4037.269	-7.1
4047.172	-4.1
4057.046	-4.1
4066.891	-8.1
4076.708	-6.1
4086.497	-3.1
4096.257	-7.1
4105.989	1.9
4115.694	-3.1
4125.37	-3.1
4135.019	-5.1
4142.237	-5.1