File: Data/Raman/2018-3-19 - Pesticide/Organized/dark_RamanShift_03.txt
Data from empty plastic_RamanShift_05.txt Node

Date: Mon Mar 19 11:57:44 IST 2018
User: aro
Spectrometer: QEPB0276
Trigger mode: 0
Integration Time (sec): 5.000000E0
Scans to average: 1
Electric dark correction enabled: true
Nonlinearity correction enabled: false
Boxcar width: 0
XAxis mode: Raman Shifts
Number of Pixels in Spectrum: 1044
>>>>>Begin Spectral Data<<<<<
160.701	-0.8
184.826	0.2
208.845	-3.8
232.758	-0.8
256.565	-0.8
280.267	1.2
303.865	3.2
327.359	-3.8
350.751	0.2
374.04	-1.8
397.228	0.2
420.315	1.2
443.302	-3.8
466.189	2.2
488.978	-0.8
511.668	-1.8
534.261	0.2
556.756	-0.8
579.155	-4.8
601.459	2.2
623.667	0.2
645.781	-3.8
667.8	0.2
689.726	-4.8
711.56	2.2
733.301	-5.8
754.951	-1.8
776.509	0.2
797.977	-0.8
819.355	4.2
840.644	-0.8
861.844	1.2
882.955	-1.8
903.979	-0.8
924.916	2.2
945.766	-0.8
966.529	1.2
987.208	0.2
1007.801	5.2
1028.309	-2.8
1048.734	3.2
1069.075	-2.8
1089.333	2.2
1109.509	0.2
1129.602	-4.8
1149.614	1.2
1169.545	0.2
1189.395	-1.8
1209.165	0.2
1228.856	-0.8
1248.467	1.2
1268	-0.8
1287.455	0.2
1306.832	-1.8
1326.132	0.2
1345.354	-0.8
1364.501	1.2
1383.572	-5.8
1402.567	5.2
1421.487	0.2
1440.333	0.2
1459.104	3.2
1477.802	-1.8
1496.426	1.2
1514.978	-0.8
1533.457	0.2
1551.864	-1.8
1570.199	-2.8
1588.464	-0.8
1606.657	-2.8
1624.78	3.2
1642.834	1.2
1660.817	-2.8
1678.732	0.2
1696.577	-1.8
1714.355	-3.8
1732.064	0.2
1749.705	1.2
1767.28	-1.8
1784.787	1.2
1802.228	0.2
1819.603	1.2
1836.913	-2.8
1854.156	-0.8
1871.335	2.2
1888.449	-1.8
1905.499	2.2
1922.485	-2.8
1939.408	2.2
1956.267	-3.8
1973.063	1.2
1989.797	0.2
2006.469	-0.8
2023.078	2.2
2039.627	-2.8
2056.114	1.2
2072.54	0.2
2088.906	1.2
2105.211	1.2
2121.457	0.2
2137.643	-4.8
2153.77	2.2
2169.838	-1.8
2185.848	1.2
2201.799	2.2
2217.693	-1.8
2233.529	1.2
2249.307	-2.8
2265.029	0.2
2280.694	0.2
2296.302	1.2
2311.854	-3.8
2327.351	-0.8
2342.792	-4.8
2358.178	-2.8
2373.508	-0.8
2388.785	-1.8
2404.007	-0.8
2419.174	1.2
2434.289	1.2
2449.349	0.2
2464.356	4.2
2479.311	-1.8
2494.213	4.2
2509.062	-3.8
2523.859	1.2
2538.605	-1.8
2553.299	1.2
2567.941	-0.8
2582.533	-0.8
2597.073	-0.8
2611.564	4.2
2626.004	0.2
2640.394	0.2
2654.734	4.2
2669.025	-0.8
2683.266	2.2
2697.458	-0.8
2711.602	3.2
2725.697	-1.8
2739.744	3.2
2753.743	0.2
2767.695	1.2
2781.598	-0.8
2795.455	2.2
2809.264	2.2
2823.026	-1.8
2836.742	0.2
2850.412	0.2
2864.035	1.2
2877.613	2.2
2891.145	-0.8
2904.631	-0.8
2918.073	-2.8
2931.469	1.2
2944.821	-0.8
2958.128	-0.8
2971.39	1.2
2984.609	-4.8
2997.784	3.2
3010.915	-0.8
3024.002	-1.8
3037.046	-2.8
3050.048	-1.8
3063.006	1.2
3075.922	0.2
3088.795	-0.8
3101.627	-1.8
3114.416	0.2
3127.163	0.2
3139.869	-0.8
3152.533	0.2
3165.157	-2.8
3177.739	-0.8
3190.28	-2.8
3202.781	2.2
3215.241	-1.8
3227.661	2.2
3240.041	-2.8
3252.382	2.2
3264.682	1.2
3276.943	-3.8
3289.165	-0.8
3301.348	-3.8
3313.492	-0.8
3325.597	-0.8
3337.663	-1.8
3349.691	2.2
3361.681	-1.8
3373.633	1.2
3385.547	1.2
3397.424	-2.8
3409.263	2.2
3421.065	3.2
3432.829	-3.8
3444.557	4.2
3456.247	-3.8
3467.902	-2.8
3479.519	-1.8
3491.101	0.2
3502.646	3.2
3514.155	-0.8
3525.629	-0.8
3537.067	-1.8
3548.469	-2.8
3559.837	-0.8
3571.169	0.2
3582.466	-3.8
3593.728	3.2
3604.956	-0.8
3616.149	-1.8
3627.307	1.2
3638.432	-1.8
3649.523	0.2
3660.579	4.2
3671.602	-0.8
3682.591	2.2
3693.547	-0.8
3704.47	1.2
3715.359	3.2
3726.216	-6.8
3737.039	5.2
3747.83	0.2
3758.589	0.2
3769.315	0.2
3780.008	0.2
3790.67	1.2
3801.299	1.2
3811.897	-2.8
3822.463	-0.8
3832.998	0.2
3843.501	-1.8
3853.973	3.2
3864.414	-3.8
3874.823	0.2
3885.202	0.2
3895.55	0.2
3905.868	2.2
3916.155	2.2
3926.411	-0.8
3936.638	0.2
3946.834	1.2
3957	3.2
3967.137	0.2
3977.244	-3.8
3987.321	3.2
3997.369	-3.8
4007.388	0.2
4017.377	3.2
4027.338	-3.8
4037.269	1.2
4047.172	0.2
4057.046	0.2
4066.891	1.2
4076.708	-0.8
4086.497	2.2
4096.257	-3.8
4105.989	5.2
4115.694	-2.8
4125.37	-6.8
4135.019	4.2
4142.237	-3.8