File: Data/Raman/2018-3-19 - Pesticide/Organized/empty plastic_RamanShift_01.txt
Data from empty plastic_RamanShift_01.txt Node

Date: Mon Mar 19 11:57:19 IST 2018
User: aro
Spectrometer: QEPB0276
Trigger mode: 0
Integration Time (sec): 5.000000E0
Scans to average: 1
Electric dark correction enabled: true
Nonlinearity correction enabled: false
Boxcar width: 0
XAxis mode: Raman Shifts
Number of Pixels in Spectrum: 1044
>>>>>Begin Spectral Data<<<<<
160.701	-2.6
184.826	15.4
208.845	61.4
232.758	67.4
256.565	76.4
280.267	79.4
303.865	78.4
327.359	83.4
350.751	82.4
374.04	86.4
397.228	98.4
420.315	120.4
443.302	87.4
466.189	94.4
488.978	83.4
511.668	60.4
534.261	48.4
556.756	36.4
579.155	35.4
601.459	36.4
623.667	34.4
645.781	37.4
667.8	29.4
689.726	26.4
711.56	29.4
733.301	26.4
754.951	30.4
776.509	30.4
797.977	37.4
819.355	55.4
840.644	45.4
861.844	34.4
882.955	21.4
903.979	28.4
924.916	23.4
945.766	27.4
966.529	34.4
987.208	27.4
1007.801	35.4
1028.309	23.4
1048.734	33.4
1069.075	23.4
1089.333	24.4
1109.509	22.4
1129.602	19.4
1149.614	25.4
1169.545	36.4
1189.395	24.4
1209.165	19.4
1228.856	24.4
1248.467	22.4
1268	12.4
1287.455	22.4
1306.832	21.4
1326.132	30.4
1345.354	28.4
1364.501	27.4
1383.572	14.4
1402.567	15.4
1421.487	15.4
1440.333	26.4
1459.104	38.4
1477.802	23.4
1496.426	20.4
1514.978	10.4
1533.457	15.4
1551.864	9.4
1570.199	11.4
1588.464	13.4
1606.657	8.4
1624.78	12.4
1642.834	11.4
1660.817	5.4
1678.732	13.4
1696.577	11.4
1714.355	11.4
1732.064	9.4
1749.705	12.4
1767.28	7.4
1784.787	12.4
1802.228	10.4
1819.603	8.4
1836.913	6.4
1854.156	5.4
1871.335	11.4
1888.449	4.4
1905.499	8.4
1922.485	7.4
1939.408	6.4
1956.267	7.4
1973.063	10.4
1989.797	4.4
2006.469	8.4
2023.078	5.4
2039.627	1.4
2056.114	4.4
2072.54	3.4
2088.906	9.4
2105.211	4.4
2121.457	6.4
2137.643	4.4
2153.77	6.4
2169.838	2.4
2185.848	4.4
2201.799	5.4
2217.693	3.4
2233.529	8.4
2249.307	2.4
2265.029	1.4
2280.694	4.4
2296.302	2.4
2311.854	-0.6
2327.351	2.4
2342.792	-3.6
2358.178	3.4
2373.508	-2.6
2388.785	4.4
2404.007	2.4
2419.174	2.4
2434.289	6.4
2449.349	-0.6
2464.356	5.4
2479.311	-0.6
2494.213	0.4
2509.062	1.4
2523.859	0.4
2538.605	1.4
2553.299	2.4
2567.941	0.4
2582.533	2.4
2597.073	2.4
2611.564	5.4
2626.004	2.4
2640.394	1.4
2654.734	3.4
2669.025	-1.6
2683.266	-1.6
2697.458	-1.6
2711.602	0.4
2725.697	2.4
2739.744	1.4
2753.743	-1.6
2767.695	2.4
2781.598	0.4
2795.455	0.4
2809.264	0.4
2823.026	-0.6
2836.742	6.4
2850.412	13.4
2864.035	9.4
2877.613	23.4
2891.145	26.4
2904.631	20.4
2918.073	15.4
2931.469	12.4
2944.821	9.4
2958.128	13.4
2971.39	8.4
2984.609	1.4
2997.784	4.4
3010.915	0.4
3024.002	-0.6
3037.046	-5.6
3050.048	0.4
3063.006	-2.6
3075.922	-6.6
3088.795	0.4
3101.627	-6.6
3114.416	4.4
3127.163	-0.6
3139.869	0.4
3152.533	0.4
3165.157	-1.6
3177.739	-1.6
3190.28	-3.6
3202.781	-0.6
3215.241	-1.6
3227.661	-0.6
3240.041	-4.6
3252.382	-1.6
3264.682	-0.6
3276.943	-4.6
3289.165	-0.6
3301.348	-2.6
3313.492	-2.6
3325.597	-0.6
3337.663	-2.6
3349.691	-0.6
3361.681	-1.6
3373.633	-2.6
3385.547	-2.6
3397.424	-5.6
3409.263	-0.6
3421.065	2.4
3432.829	-4.6
3444.557	0.4
3456.247	-7.6
3467.902	-5.6
3479.519	-2.6
3491.101	-4.6
3502.646	1.4
3514.155	-3.6
3525.629	0.4
3537.067	-5.6
3548.469	-6.6
3559.837	-2.6
3571.169	-0.6
3582.466	-3.6
3593.728	-0.6
3604.956	-3.6
3616.149	-1.6
3627.307	-2.6
3638.432	-3.6
3649.523	-3.6
3660.579	-0.6
3671.602	0.4
3682.591	-2.6
3693.547	0.4
3704.47	-3.6
3715.359	-1.6
3726.216	-0.6
3737.039	-3.6
3747.83	1.4
3758.589	0.4
3769.315	-5.6
3780.008	2.4
3790.67	-0.6
3801.299	0.4
3811.897	0.4
3822.463	-5.6
3832.998	0.4
3843.501	-4.6
3853.973	0.4
3864.414	-5.6
3874.823	-3.6
3885.202	5.4
3895.55	-3.6
3905.868	-0.6
3916.155	2.4
3926.411	-0.6
3936.638	0.4
3946.834	-0.6
3957	-5.6
3967.137	-0.6
3977.244	-3.6
3987.321	-2.6
3997.369	-4.6
4007.388	-3.6
4017.377	3.4
4027.338	-2.6
4037.269	-0.6
4047.172	-0.6
4057.046	-2.6
4066.891	-3.6
4076.708	2.4
4086.497	-3.6
4096.257	-4.6
4105.989	1.4
4115.694	3.4
4125.37	-7.6
4135.019	-0.6
4142.237	-3.6