File: Data/Raman/2018-3-19 - Pesticide/Organized/empty plastic_RamanShift_02.txt
Data from empty plastic_RamanShift_02.txt Node

Date: Mon Mar 19 11:57:24 IST 2018
User: aro
Spectrometer: QEPB0276
Trigger mode: 0
Integration Time (sec): 5.000000E0
Scans to average: 1
Electric dark correction enabled: true
Nonlinearity correction enabled: false
Boxcar width: 0
XAxis mode: Raman Shifts
Number of Pixels in Spectrum: 1044
>>>>>Begin Spectral Data<<<<<
160.701	1
184.826	18
208.845	63
232.758	67
256.565	71
280.267	77
303.865	76
327.359	82
350.751	82
374.04	86
397.228	100
420.315	119
443.302	91
466.189	88
488.978	81
511.668	64
534.261	47
556.756	40
579.155	34
601.459	41
623.667	35
645.781	38
667.8	32
689.726	21
711.56	25
733.301	23
754.951	29
776.509	33
797.977	35
819.355	58
840.644	42
861.844	34
882.955	24
903.979	26
924.916	23
945.766	26
966.529	27
987.208	27
1007.801	29
1028.309	26
1048.734	33
1069.075	18
1089.333	26
1109.509	23
1129.602	22
1149.614	30
1169.545	34
1189.395	22
1209.165	20
1228.856	23
1248.467	21
1268	16
1287.455	22
1306.832	21
1326.132	27
1345.354	27
1364.501	22
1383.572	12
1402.567	17
1421.487	16
1440.333	26
1459.104	42
1477.802	26
1496.426	18
1514.978	12
1533.457	11
1551.864	11
1570.199	11
1588.464	10
1606.657	10
1624.78	11
1642.834	10
1660.817	9
1678.732	9
1696.577	15
1714.355	9
1732.064	8
1749.705	9
1767.28	5
1784.787	13
1802.228	5
1819.603	6
1836.913	5
1854.156	5
1871.335	11
1888.449	6
1905.499	6
1922.485	3
1939.408	8
1956.267	2
1973.063	9
1989.797	4
2006.469	5
2023.078	6
2039.627	1
2056.114	5
2072.54	2
2088.906	7
2105.211	7
2121.457	3
2137.643	3
2153.77	2
2169.838	0
2185.848	6
2201.799	2
2217.693	1
2233.529	6
2249.307	0
2265.029	6
2280.694	4
2296.302	2
2311.854	2
2327.351	4
2342.792	0
2358.178	1
2373.508	-1
2388.785	5
2404.007	-4
2419.174	1
2434.289	1
2449.349	-1
2464.356	6
2479.311	-2
2494.213	2
2509.062	0
2523.859	1
2538.605	0
2553.299	0
2567.941	2
2582.533	0
2597.073	3
2611.564	1
2626.004	2
2640.394	0
2654.734	1
2669.025	2
2683.266	-1
2697.458	-3
2711.602	3
2725.697	0
2739.744	4
2753.743	1
2767.695	0
2781.598	2
2795.455	0
2809.264	1
2823.026	3
2836.742	8
2850.412	12
2864.035	11
2877.613	20
2891.145	28
2904.631	21
2918.073	13
2931.469	14
2944.821	8
2958.128	14
2971.39	10
2984.609	-2
2997.784	5
3010.915	-1
3024.002	-3
3037.046	-3
3050.048	-1
3063.006	-4
3075.922	-5
3088.795	-2
3101.627	-4
3114.416	-1
3127.163	0
3139.869	0
3152.533	-2
3165.157	-3
3177.739	-3
3190.28	-7
3202.781	-1
3215.241	-3
3227.661	-1
3240.041	-1
3252.382	-6
3264.682	1
3276.943	0
3289.165	-7
3301.348	-1
3313.492	-2
3325.597	-7
3337.663	-2
3349.691	-4
3361.681	-2
3373.633	-3
3385.547	-5
3397.424	0
3409.263	-2
3421.065	2
3432.829	-1
3444.557	-5
3456.247	-8
3467.902	-4
3479.519	-8
3491.101	0
3502.646	-1
3514.155	-3
3525.629	-3
3537.067	-10
3548.469	-2
3559.837	-6
3571.169	-1
3582.466	0
3593.728	-5
3604.956	-2
3616.149	-6
3627.307	-4
3638.432	-5
3649.523	-5
3660.579	-1
3671.602	-2
3682.591	-4
3693.547	2
3704.47	-9
3715.359	0
3726.216	-3
3737.039	-1
3747.83	-3
3758.589	-4
3769.315	-4
3780.008	-4
3790.67	0
3801.299	0
3811.897	-4
3822.463	-4
3832.998	-2
3843.501	-6
3853.973	3
3864.414	-6
3874.823	-1
3885.202	3
3895.55	-2
3905.868	-4
3916.155	-1
3926.411	0
3936.638	-3
3946.834	0
3957	-5
3967.137	-3
3977.244	-2
3987.321	-5
3997.369	-4
4007.388	-2
4017.377	-2
4027.338	-5
4037.269	-1
4047.172	-3
4057.046	-1
4066.891	-6
4076.708	-1
4086.497	-3
4096.257	-2
4105.989	4
4115.694	0
4125.37	-6
4135.019	0
4142.237	-8