File: Data/Raman/2018-3-19 - Pesticide/Organized/empty plastic_RamanShift_03.txt
Data from empty plastic_RamanShift_03.txt Node

Date: Mon Mar 19 11:57:29 IST 2018
User: aro
Spectrometer: QEPB0276
Trigger mode: 0
Integration Time (sec): 5.000000E0
Scans to average: 1
Electric dark correction enabled: true
Nonlinearity correction enabled: false
Boxcar width: 0
XAxis mode: Raman Shifts
Number of Pixels in Spectrum: 1044
>>>>>Begin Spectral Data<<<<<
160.701	1.4
184.826	13.4
208.845	63.4
232.758	69.4
256.565	72.4
280.267	76.4
303.865	75.4
327.359	85.4
350.751	87.4
374.04	84.4
397.228	96.4
420.315	117.4
443.302	90.4
466.189	86.4
488.978	80.4
511.668	63.4
534.261	46.4
556.756	41.4
579.155	31.4
601.459	36.4
623.667	35.4
645.781	33.4
667.8	31.4
689.726	22.4
711.56	28.4
733.301	25.4
754.951	25.4
776.509	33.4
797.977	37.4
819.355	55.4
840.644	44.4
861.844	31.4
882.955	23.4
903.979	24.4
924.916	23.4
945.766	30.4
966.529	30.4
987.208	28.4
1007.801	34.4
1028.309	20.4
1048.734	34.4
1069.075	20.4
1089.333	24.4
1109.509	23.4
1129.602	19.4
1149.614	26.4
1169.545	36.4
1189.395	21.4
1209.165	19.4
1228.856	26.4
1248.467	20.4
1268	19.4
1287.455	21.4
1306.832	19.4
1326.132	30.4
1345.354	26.4
1364.501	24.4
1383.572	10.4
1402.567	14.4
1421.487	18.4
1440.333	23.4
1459.104	36.4
1477.802	27.4
1496.426	14.4
1514.978	11.4
1533.457	14.4
1551.864	7.4
1570.199	14.4
1588.464	14.4
1606.657	9.4
1624.78	16.4
1642.834	8.4
1660.817	5.4
1678.732	11.4
1696.577	5.4
1714.355	10.4
1732.064	6.4
1749.705	7.4
1767.28	8.4
1784.787	8.4
1802.228	7.4
1819.603	4.4
1836.913	4.4
1854.156	5.4
1871.335	10.4
1888.449	3.4
1905.499	11.4
1922.485	3.4
1939.408	9.4
1956.267	2.4
1973.063	1.4
1989.797	4.4
2006.469	2.4
2023.078	7.4
2039.627	4.4
2056.114	3.4
2072.54	5.4
2088.906	5.4
2105.211	7.4
2121.457	4.4
2137.643	0.4
2153.77	4.4
2169.838	3.4
2185.848	5.4
2201.799	4.4
2217.693	0.4
2233.529	5.4
2249.307	-3.6
2265.029	3.4
2280.694	2.4
2296.302	2.4
2311.854	0.4
2327.351	-1.6
2342.792	-0.6
2358.178	2.4
2373.508	-4.6
2388.785	4.4
2404.007	2.4
2419.174	2.4
2434.289	1.4
2449.349	-2.6
2464.356	8.4
2479.311	-2.6
2494.213	2.4
2509.062	-1.6
2523.859	1.4
2538.605	0.4
2553.299	0.4
2567.941	0.4
2582.533	1.4
2597.073	-1.6
2611.564	4.4
2626.004	0.4
2640.394	0.4
2654.734	4.4
2669.025	-0.6
2683.266	-2.6
2697.458	-0.6
2711.602	1.4
2725.697	0.4
2739.744	0.4
2753.743	-2.6
2767.695	1.4
2781.598	-2.6
2795.455	0.4
2809.264	1.4
2823.026	2.4
2836.742	7.4
2850.412	14.4
2864.035	7.4
2877.613	22.4
2891.145	26.4
2904.631	20.4
2918.073	14.4
2931.469	10.4
2944.821	9.4
2958.128	11.4
2971.39	6.4
2984.609	-1.6
2997.784	3.4
3010.915	1.4
3024.002	-1.6
3037.046	-5.6
3050.048	1.4
3063.006	-3.6
3075.922	-6.6
3088.795	0.4
3101.627	-4.6
3114.416	-0.6
3127.163	-1.6
3139.869	-3.6
3152.533	-1.6
3165.157	-3.6
3177.739	-4.6
3190.28	-7.6
3202.781	-0.6
3215.241	-3.6
3227.661	0.4
3240.041	-6.6
3252.382	-2.6
3264.682	-2.6
3276.943	-4.6
3289.165	-1.6
3301.348	-5.6
3313.492	-5.6
3325.597	-4.6
3337.663	-1.6
3349.691	-0.6
3361.681	-3.6
3373.633	-2.6
3385.547	-2.6
3397.424	-4.6
3409.263	0.4
3421.065	1.4
3432.829	-4.6
3444.557	0.4
3456.247	-6.6
3467.902	-4.6
3479.519	-5.6
3491.101	-2.6
3502.646	0.4
3514.155	-8.6
3525.629	-1.6
3537.067	-6.6
3548.469	-3.6
3559.837	-4.6
3571.169	-1.6
3582.466	-1.6
3593.728	0.4
3604.956	-5.6
3616.149	-2.6
3627.307	-4.6
3638.432	-5.6
3649.523	-4.6
3660.579	-1.6
3671.602	-1.6
3682.591	-3.6
3693.547	0.4
3704.47	-7.6
3715.359	-2.6
3726.216	-1.6
3737.039	-2.6
3747.83	-3.6
3758.589	-4.6
3769.315	-5.6
3780.008	-0.6
3790.67	-3.6
3801.299	-0.6
3811.897	-3.6
3822.463	-9.6
3832.998	-2.6
3843.501	-2.6
3853.973	0.4
3864.414	-5.6
3874.823	-3.6
3885.202	2.4
3895.55	-5.6
3905.868	-4.6
3916.155	-1.6
3926.411	-1.6
3936.638	-3.6
3946.834	0.4
3957	-5.6
3967.137	-0.6
3977.244	-2.6
3987.321	-4.6
3997.369	-3.6
4007.388	-1.6
4017.377	-2.6
4027.338	-3.6
4037.269	-4.6
4047.172	-4.6
4057.046	-3.6
4066.891	-6.6
4076.708	-2.6
4086.497	-3.6
4096.257	-2.6
4105.989	5.4
4115.694	-0.6
4125.37	-6.6
4135.019	0.4
4142.237	-7.6