File: Data/Raman/2018-3-19 - Pesticide/empty plastic_RamanShift_01.txt
Data from empty plastic_RamanShift_01.txt Node

Date: Mon Mar 19 11:41:24 IST 2018
User: aro
Spectrometer: QEPB0276
Trigger mode: 0
Integration Time (sec): 5.000000E0
Scans to average: 1
Electric dark correction enabled: true
Nonlinearity correction enabled: false
Boxcar width: 0
XAxis mode: Raman Shifts
Number of Pixels in Spectrum: 1044
>>>>>Begin Spectral Data<<<<<
160.701	-1
184.826	20
208.845	58
232.758	64
256.565	70
280.267	69
303.865	71
327.359	78
350.751	80
374.04	80
397.228	94
420.315	121
443.302	83
466.189	81
488.978	77
511.668	58
534.261	43
556.756	36
579.155	31
601.459	30
623.667	36
645.781	32
667.8	28
689.726	22
711.56	22
733.301	19
754.951	26
776.509	27
797.977	30
819.355	49
840.644	41
861.844	26
882.955	18
903.979	22
924.916	20
945.766	25
966.529	27
987.208	24
1007.801	27
1028.309	21
1048.734	26
1069.075	20
1089.333	24
1109.509	21
1129.602	20
1149.614	25
1169.545	29
1189.395	17
1209.165	17
1228.856	19
1248.467	16
1268	12
1287.455	18
1306.832	16
1326.132	26
1345.354	24
1364.501	22
1383.572	14
1402.567	15
1421.487	14
1440.333	23
1459.104	34
1477.802	18
1496.426	13
1514.978	11
1533.457	15
1551.864	6
1570.199	10
1588.464	10
1606.657	8
1624.78	13
1642.834	8
1660.817	10
1678.732	11
1696.577	7
1714.355	9
1732.064	10
1749.705	12
1767.28	4
1784.787	10
1802.228	9
1819.603	5
1836.913	8
1854.156	6
1871.335	9
1888.449	5
1905.499	11
1922.485	3
1939.408	7
1956.267	4
1973.063	3
1989.797	5
2006.469	3
2023.078	7
2039.627	2
2056.114	3
2072.54	6
2088.906	7
2105.211	5
2121.457	4
2137.643	0
2153.77	3
2169.838	1
2185.848	2
2201.799	4
2217.693	0
2233.529	7
2249.307	3
2265.029	2
2280.694	6
2296.302	3
2311.854	-3
2327.351	3
2342.792	-1
2358.178	1
2373.508	0
2388.785	2
2404.007	0
2419.174	6
2434.289	-1
2449.349	1
2464.356	6
2479.311	-5
2494.213	3
2509.062	-2
2523.859	6
2538.605	-2
2553.299	0
2567.941	2
2582.533	-1
2597.073	1
2611.564	5
2626.004	-1
2640.394	0
2654.734	4
2669.025	0
2683.266	0
2697.458	3
2711.602	3
2725.697	-1
2739.744	5
2753.743	-1
2767.695	2
2781.598	0
2795.455	-2
2809.264	1
2823.026	-1
2836.742	7
2850.412	11
2864.035	7
2877.613	19
2891.145	20
2904.631	15
2918.073	13
2931.469	8
2944.821	9
2958.128	11
2971.39	6
2984.609	2
2997.784	4
3010.915	2
3024.002	-3
3037.046	-7
3050.048	-1
3063.006	-2
3075.922	-3
3088.795	2
3101.627	-6
3114.416	-1
3127.163	0
3139.869	-3
3152.533	2
3165.157	-6
3177.739	-2
3190.28	-5
3202.781	-3
3215.241	-2
3227.661	-2
3240.041	-4
3252.382	1
3264.682	-1
3276.943	-2
3289.165	-7
3301.348	-2
3313.492	-1
3325.597	-7
3337.663	0
3349.691	-4
3361.681	-2
3373.633	-1
3385.547	-3
3397.424	1
3409.263	-1
3421.065	1
3432.829	-3
3444.557	-4
3456.247	-5
3467.902	-1
3479.519	-6
3491.101	0
3502.646	1
3514.155	-5
3525.629	-3
3537.067	-8
3548.469	-2
3559.837	-7
3571.169	-2
3582.466	-2
3593.728	-2
3604.956	-3
3616.149	-2
3627.307	-4
3638.432	-4
3649.523	-6
3660.579	-1
3671.602	3
3682.591	-3
3693.547	-2
3704.47	-3
3715.359	0
3726.216	-4
3737.039	1
3747.83	-2
3758.589	-1
3769.315	-3
3780.008	-3
3790.67	0
3801.299	-6
3811.897	-4
3822.463	-4
3832.998	-3
3843.501	1
3853.973	0
3864.414	-6
3874.823	0
3885.202	4
3895.55	-2
3905.868	1
3916.155	-2
3926.411	-1
3936.638	-1
3946.834	-1
3957	-3
3967.137	0
3977.244	-2
3987.321	1
3997.369	-3
4007.388	-3
4017.377	1
4027.338	-4
4037.269	1
4047.172	-2
4057.046	-4
4066.891	-2
4076.708	0
4086.497	-1
4096.257	-6
4105.989	6
4115.694	-2
4125.37	-6
4135.019	-3
4142.237	-5