File: Data/Raman/2017-08-24 - Glass, alluminum 108/Glass/Glass only - 5s - I=1, no fixes_RamanShift_1.txt
Data from Glass only - 5s - I=1, no fixes_RamanShift_1.txt Node

Date: Thu Aug 24 11:23:13 IDT 2017
User: aro
Spectrometer: QEPB0276
Trigger mode: 0
Integration Time (sec): 5.000000E0
Scans to average: 1
Electric dark correction enabled: true
Nonlinearity correction enabled: false
Boxcar width: 0
XAxis mode: Raman Shifts
Number of Pixels in Spectrum: 1044
>>>>>Begin Spectral Data<<<<<
160.701	3
184.826	124
208.845	675
232.758	767
256.565	861
280.267	939
303.865	1087
327.359	1233
350.751	1369
374.04	1408
397.228	1387
420.315	1468
443.302	1289
466.189	1191
488.978	1129
511.668	1033
534.261	970
556.756	970
579.155	952
601.459	922
623.667	885
645.781	893
667.8	836
689.726	800
711.56	759
733.301	751
754.951	738
776.509	706
797.977	692
819.355	666
840.644	655
861.844	654
882.955	645
903.979	640
924.916	664
945.766	687
966.529	710
987.208	722
1007.801	826
1028.309	929
1048.734	1047
1069.075	1196
1089.333	1469
1109.509	1749
1129.602	2008
1149.614	2341
1169.545	2732
1189.395	3068
1209.165	3438
1228.856	3918
1248.467	4249
1268	4448
1287.455	4909
1306.832	6141
1326.132	7714
1345.354	9058
1364.501	9768
1383.572	9876
1402.567	9601
1421.487	9191
1440.333	8919
1459.104	8443
1477.802	7695
1496.426	7300
1514.978	7076
1533.457	6569
1551.864	6120
1570.199	5986
1588.464	5914
1606.657	5637
1624.78	5383
1642.834	5296
1660.817	5255
1678.732	5019
1696.577	4610
1714.355	4169
1732.064	4001
1749.705	3670
1767.28	3401
1784.787	3360
1802.228	3286
1819.603	3105
1836.913	3067
1854.156	3160
1871.335	3227
1888.449	3178
1905.499	3054
1922.485	2924
1939.408	2745
1956.267	2334
1973.063	1897
1989.797	1593
2006.469	1360
2023.078	1153
2039.627	961
2056.114	851
2072.54	769
2088.906	689
2105.211	621
2121.457	545
2137.643	485
2153.77	441
2169.838	401
2185.848	378
2201.799	353
2217.693	335
2233.529	336
2249.307	314
2265.029	290
2280.694	273
2296.302	268
2311.854	252
2327.351	241
2342.792	229
2358.178	224
2373.508	233
2388.785	222
2404.007	217
2419.174	215
2434.289	215
2449.349	198
2464.356	189
2479.311	191
2494.213	186
2509.062	187
2523.859	170
2538.605	170
2553.299	165
2567.941	164
2582.533	154
2597.073	148
2611.564	144
2626.004	137
2640.394	134
2654.734	125
2669.025	111
2683.266	116
2697.458	103
2711.602	102
2725.697	94
2739.744	97
2753.743	89
2767.695	84
2781.598	84
2795.455	76
2809.264	82
2823.026	80
2836.742	81
2850.412	83
2864.035	80
2877.613	82
2891.145	81
2904.631	80
2918.073	90
2931.469	90
2944.821	99
2958.128	105
2971.39	112
2984.609	123
2997.784	141
3010.915	153
3024.002	155
3037.046	173
3050.048	194
3063.006	218
3075.922	256
3088.795	275
3101.627	296
3114.416	319
3127.163	354
3139.869	376
3152.533	400
3165.157	408
3177.739	428
3190.28	462
3202.781	500
3215.241	556
3227.661	594
3240.041	637
3252.382	679
3264.682	718
3276.943	728
3289.165	720
3301.348	680
3313.492	644
3325.597	607
3337.663	587
3349.691	559
3361.681	517
3373.633	459
3385.547	420
3397.424	381
3409.263	344
3421.065	329
3432.829	299
3444.557	266
3456.247	234
3467.902	208
3479.519	178
3491.101	163
3502.646	137
3514.155	126
3525.629	112
3537.067	97
3548.469	76
3559.837	66
3571.169	60
3582.466	54
3593.728	43
3604.956	37
3616.149	33
3627.307	30
3638.432	24
3649.523	23
3660.579	18
3671.602	18
3682.591	12
3693.547	7
3704.47	8
3715.359	8
3726.216	6
3737.039	-1
3747.83	0
3758.589	-1
3769.315	-3
3780.008	-1
3790.67	-8
3801.299	-10
3811.897	-12
3822.463	-11
3832.998	-9
3843.501	-15
3853.973	-16
3864.414	-15
3874.823	-13
3885.202	-4
3895.55	-15
3905.868	-19
3916.155	-18
3926.411	-17
3936.638	-16
3946.834	-14
3957	-15
3967.137	-16
3977.244	-12
3987.321	-18
3997.369	-17
4007.388	-14
4017.377	-19
4027.338	-15
4037.269	-22
4047.172	-17
4057.046	-13
4066.891	-15
4076.708	-13
4086.497	-15
4096.257	-20
4105.989	-1
4115.694	-3
4125.37	-15
4135.019	-19
4142.237	-21