File: Data/Raman/2017-08-24 - Glass, alluminum 108/Glass/glass - 10s - I=1, bc=5_RamanShift_2.txt
Data from subtilis colony - 10s - I=1, bc=5_RamanShift_2.txt Node

Date: Thu Aug 24 11:31:58 IDT 2017
User: aro
Spectrometer: QEPB0276
Trigger mode: 0
Integration Time (sec): 1.000000E1
Scans to average: 1
Electric dark correction enabled: true
Nonlinearity correction enabled: false
Boxcar width: 5
XAxis mode: Raman Shifts
Number of Pixels in Spectrum: 1044
>>>>>Begin Spectral Data<<<<<
160.701	239.38
184.826	857.98
208.845	1596.33
232.758	2267.97
256.565	2529.24
280.267	2778.15
303.865	3080.15
327.359	3410.88
350.751	3671.6
374.04	3798.42
397.228	3848.06
420.315	3772.15
443.302	3631.78
466.189	3418.78
488.978	3258.51
511.668	3106.97
534.261	3000.06
556.756	2948.24
579.155	2922.69
601.459	2868.24
623.667	2822.51
645.781	2762.06
667.8	2712.06
689.726	2628.88
711.56	2565.33
733.301	2518.06
754.951	2480.51
776.509	2458.24
797.977	2421.78
819.355	2376.78
840.644	2350.6
861.844	2337.97
882.955	2330.42
903.979	2340.78
924.916	2368.88
945.766	2426.15
966.529	2459.15
987.208	2533.97
1007.801	2701.33
1028.309	2933.69
1048.734	3183.88
1069.075	3539.97
1089.333	4042.42
1109.509	4589.88
1129.602	5170.51
1149.614	5841.33
1169.545	6586.88
1189.395	7323.78
1209.165	8102.69
1228.856	8944.88
1248.467	9621.42
1268	10272.51
1287.455	11492.33
1306.832	13749.78
1326.132	16596.51
1345.354	19080.24
1364.501	20487.15
1383.572	20791.69
1402.567	20367.24
1421.487	19717.69
1440.333	18965.15
1459.104	17991.24
1477.802	16870.51
1496.426	15927.69
1514.978	15157.78
1533.457	14302.88
1551.864	13508.97
1570.199	13060.42
1588.464	12746.42
1606.657	12288.78
1624.78	11798.51
1642.834	11570.42
1660.817	11393.51
1678.732	10937.06
1696.577	10122.24
1714.355	9354.24
1732.064	8691.51
1749.705	8129.78
1767.28	7657.78
1784.787	7410.15
1802.228	7190.78
1819.603	6964.97
1836.913	6877.69
1854.156	6979.69
1871.335	7073.24
1888.449	6998.33
1905.499	6791.06
1922.485	6478.15
1939.408	5982.88
1956.267	5232.78
1973.063	4419.33
1989.797	3729.97
2006.469	3232.88
2023.078	2813.51
2039.627	2449.06
2056.114	2177.78
2072.54	2005.24
2088.906	1839.33
2105.211	1674.88
2121.457	1507.78
2137.643	1384.6
2153.77	1281.51
2169.838	1201.51
2185.848	1123.24
2201.799	1074.06
2217.693	1037.69
2233.529	1005.69
2249.307	962.42
2265.029	918.69
2280.694	874.97
2296.302	839.33
2311.854	804.6
2327.351	783.88
2342.792	765.6
2358.178	762.24
2373.508	762.78
2388.785	757.51
2404.007	741.6
2419.174	730.88
2434.289	714.78
2449.349	692.15
2464.356	673.97
2479.311	654.33
2494.213	642.06
2509.062	633.51
2523.859	617.88
2538.605	606.06
2553.299	594.88
2567.941	576.51
2582.533	554.6
2597.073	527.42
2611.564	507.51
2626.004	482.88
2640.394	462.33
2654.734	442.06
2669.025	419.06
2683.266	401.88
2697.458	378.15
2711.602	367.24
2725.697	353.51
2739.744	346.97
2753.743	331.24
2767.695	314.51
2781.598	304.97
2795.455	302.15
2809.264	304.6
2823.026	303.42
2836.742	294.15
2850.412	289.78
2864.035	283.15
2877.613	283.33
2891.145	271.06
2904.631	270.88
2918.073	270.42
2931.469	279.88
2944.821	286.88
2958.128	295.97
2971.39	312.33
2984.609	331.24
2997.784	355.51
3010.915	373.24
3024.002	395.51
3037.046	415.51
3050.048	459.42
3063.006	505.51
3075.922	562.42
3088.795	618.51
3101.627	658.51
3114.416	711.33
3127.163	760.97
3139.869	813.06
3152.533	849.78
3165.157	880.78
3177.739	914.88
3190.28	981.33
3202.781	1056.6
3215.241	1141.6
3227.661	1231.6
3240.041	1318.15
3252.382	1409.24
3264.682	1471.6
3276.943	1496.33
3289.165	1464.97
3301.348	1391.24
3313.492	1318.33
3325.597	1249.15
3337.663	1194.88
3349.691	1132.24
3361.681	1060.06
3373.633	970.97
3385.547	879.69
3397.424	803.42
3409.263	734.06
3421.065	677.6
3432.829	615.69
3444.557	550.06
3456.247	487.33
3467.902	427.15
3479.519	376.88
3491.101	336.06
3502.646	292.24
3514.155	258.78
3525.629	220.33
3537.067	184.15
3548.469	153.69
3559.837	137.15
3571.169	117.06
3582.466	106.78
3593.728	92.69
3604.956	78.24
3616.149	69.6
3627.307	58.24
3638.432	52.24
3649.523	41.33
3660.579	41.6
3671.602	35.51
3682.591	28.6
3693.547	20.42
3704.47	17.6
3715.359	10.33
3726.216	7.88
3737.039	1.69
3747.83	0.69
3758.589	-7.85
3769.315	-9.12
3780.008	-13.12
3790.67	-13.49
3801.299	-22.22
3811.897	-22.67
3822.463	-27.76
3832.998	-25.22
3843.501	-33.22
3853.973	-34.58
3864.414	-30.22
3874.823	-20.94
3885.202	-18.49
3895.55	-26.94
3905.868	-35.49
3916.155	-33.67
3926.411	-35.31
3936.638	-36.49
3946.834	-35.67
3957	-32.22
3967.137	-32.85
3977.244	-39.49
3987.321	-35.31
3997.369	-37.22
4007.388	-37.85
4017.377	-37.76
4027.338	-34.76
4037.269	-39.03
4047.172	-34.03
4057.046	-35.31
4066.891	-32.85
4076.708	-33.49
4086.497	-42.4
4096.257	-34.58
4105.989	-30.4
4115.694	-20.58
4125.37	-33.03
4135.019	-43.12
4142.237	-50.29