File: Data/Raman/2017-08-24 - Glass, alluminum 108/Glass/new glass - 10s - I=1, bc=5_RamanShift_1.txt
Data from new glass - 10s - I=1, bc=5_RamanShift_1.txt Node

Date: Thu Aug 24 11:35:28 IDT 2017
User: aro
Spectrometer: QEPB0276
Trigger mode: 0
Integration Time (sec): 1.000000E1
Scans to average: 1
Electric dark correction enabled: true
Nonlinearity correction enabled: false
Boxcar width: 5
XAxis mode: Raman Shifts
Number of Pixels in Spectrum: 1044
>>>>>Begin Spectral Data<<<<<
160.701	180.12
184.826	637.92
208.845	1190.99
232.758	1695.44
256.565	1900.62
280.267	2096.53
303.865	2348.72
327.359	2637.26
350.751	2871.44
374.04	2981.9
397.228	3029.99
420.315	2956.62
443.302	2826.35
466.189	2623.99
488.978	2477.35
511.668	2335.44
534.261	2235.72
556.756	2192.35
579.155	2174.81
601.459	2125.81
623.667	2076.81
645.781	2021.26
667.8	1970.26
689.726	1891.9
711.56	1835.9
733.301	1796.53
754.951	1768.26
776.509	1748.72
797.977	1720.26
819.355	1677.35
840.644	1648.35
861.844	1631.9
882.955	1626.99
903.979	1643.62
924.916	1667.9
945.766	1724.62
966.529	1765.62
987.208	1848.26
1007.801	2001.9
1028.309	2217.17
1048.734	2466.35
1069.075	2816.35
1089.333	3298.17
1109.509	3829.81
1129.602	4402.62
1149.614	5049.08
1169.545	5764.26
1189.395	6475.81
1209.165	7236.99
1228.856	8051.26
1248.467	8713.35
1268	9357.35
1287.455	10574.99
1306.832	12803.62
1326.132	15635.35
1345.354	18128.08
1364.501	19557.81
1383.572	19873.08
1402.567	19447.9
1421.487	18790.62
1440.333	18032.35
1459.104	17069.62
1477.802	15970.62
1496.426	15045.72
1514.978	14317.17
1533.457	13509.99
1551.864	12756.08
1570.199	12309.26
1588.464	11988.17
1606.657	11553.62
1624.78	11088.35
1642.834	10857.72
1660.817	10681.99
1678.732	10251.44
1696.577	9496.44
1714.355	8771.62
1732.064	8137.81
1749.705	7608.17
1767.28	7168.44
1784.787	6940.99
1802.228	6742.53
1819.603	6532.72
1836.913	6454.9
1854.156	6546.44
1871.335	6640.53
1888.449	6579.17
1905.499	6385.81
1922.485	6075.81
1939.408	5597.62
1956.267	4887.26
1973.063	4107.08
1989.797	3434.44
2006.469	2937.26
2023.078	2523.62
2039.627	2170.99
2056.114	1912.08
2072.54	1742.17
2088.906	1591.81
2105.211	1438.9
2121.457	1284.53
2137.643	1163.17
2153.77	1070.72
2169.838	990.72
2185.848	918.08
2201.799	874.44
2217.693	842.9
2233.529	810.26
2249.307	768.99
2265.029	724.72
2280.694	690.62
2296.302	660.35
2311.854	634.17
2327.351	615.72
2342.792	595.35
2358.178	584.62
2373.508	582.35
2388.785	575.44
2404.007	562.62
2419.174	554.08
2434.289	541.81
2449.349	524.08
2464.356	510.62
2479.311	494.08
2494.213	486.17
2509.062	480.81
2523.859	467.08
2538.605	457.99
2553.299	451.44
2567.941	435.72
2582.533	423.62
2597.073	402.08
2611.564	384.53
2626.004	365.08
2640.394	348.44
2654.734	333.35
2669.025	314.99
2683.266	300.35
2697.458	282.99
2711.602	275.53
2725.697	265.81
2739.744	261.81
2753.743	253.9
2767.695	242.81
2781.598	235.81
2795.455	230.35
2809.264	231.44
2823.026	229.08
2836.742	223.72
2850.412	223.26
2864.035	219.08
2877.613	222.26
2891.145	211.81
2904.631	212.81
2918.073	212.81
2931.469	224.44
2944.821	232.9
2958.128	245.26
2971.39	263.26
2984.609	281.99
2997.784	306.62
3010.915	325.44
3024.002	349.17
3037.046	369.99
3050.048	413.53
3063.006	457.44
3075.922	512.17
3088.795	567.62
3101.627	609.26
3114.416	659.53
3127.163	710.44
3139.869	763.99
3152.533	803.26
3165.157	836.9
3177.739	874.44
3190.28	941.08
3202.781	1016.17
3215.241	1105.17
3227.661	1200.9
3240.041	1286.17
3252.382	1369.81
3264.682	1430.44
3276.943	1451.72
3289.165	1428.44
3301.348	1362.9
3313.492	1294.08
3325.597	1223.81
3337.663	1172.53
3349.691	1109.81
3361.681	1036.17
3373.633	947.35
3385.547	857.26
3397.424	782.81
3409.263	714.72
3421.065	657.9
3432.829	599.44
3444.557	535.99
3456.247	474.26
3467.902	417.26
3479.519	368.44
3491.101	329.26
3502.646	284.26
3514.155	253.17
3525.629	217.99
3537.067	181.99
3548.469	153.17
3559.837	137.08
3571.169	118.72
3582.466	109.08
3593.728	97.08
3604.956	82.35
3616.149	74.62
3627.307	63.62
3638.432	57.81
3649.523	47.44
3660.579	47.44
3671.602	41.53
3682.591	34.72
3693.547	24.35
3704.47	21.53
3715.359	15.72
3726.216	14.62
3737.039	7.99
3747.83	6.9
3758.589	-2.74
3769.315	-3.38
3780.008	-6.38
3790.67	-6.74
3801.299	-14.92
3811.897	-15.28
3822.463	-19.1
3832.998	-17.1
3843.501	-24.92
3853.973	-26.92
3864.414	-23.56
3874.823	-14.47
3885.202	-12.74
3895.55	-20.83
3905.868	-29.56
3916.155	-27.1
3926.411	-29.1
3936.638	-29.01
3946.834	-28.38
3957	-24.38
3967.137	-25.38
3977.244	-31.38
3987.321	-27.01
3997.369	-28.83
4007.388	-30.19
4017.377	-30.47
4027.338	-28.19
4037.269	-32.83
4047.172	-27.56
4057.046	-27.92
4066.891	-25.74
4076.708	-26.19
4086.497	-35.65
4096.257	-28.19
4105.989	-27.01
4115.694	-16.65
4125.37	-26.19
4135.019	-32.93
4142.237	-38.88