File: Data/Raman/2017-08-24 - Glass, alluminum 108/Glass/no glass just plastic - 5s - I=1, no fixes_RamanShift_1.txt
Data from no glass just plastic - 5s - I=1, no fixes_RamanShift_1.txt Node

Date: Thu Aug 24 11:25:23 IDT 2017
User: aro
Spectrometer: QEPB0276
Trigger mode: 0
Integration Time (sec): 5.000000E0
Scans to average: 1
Electric dark correction enabled: true
Nonlinearity correction enabled: false
Boxcar width: 0
XAxis mode: Raman Shifts
Number of Pixels in Spectrum: 1044
>>>>>Begin Spectral Data<<<<<
160.701	5.75
184.826	108.75
208.845	575.75
232.758	634.75
256.565	708.75
280.267	723.75
303.865	768.75
327.359	781.75
350.751	797.75
374.04	818.75
397.228	833.75
420.315	978.75
443.302	853.75
466.189	839.75
488.978	824.75
511.668	765.75
534.261	712.75
556.756	698.75
579.155	697.75
601.459	708.75
623.667	691.75
645.781	726.75
667.8	685.75
689.726	687.75
711.56	687.75
733.301	686.75
754.951	706.75
776.509	711.75
797.977	709.75
819.355	716.75
840.644	691.75
861.844	691.75
882.955	691.75
903.979	684.75
924.916	675.75
945.766	702.75
966.529	688.75
987.208	663.75
1007.801	680.75
1028.309	702.75
1048.734	686.75
1069.075	668.75
1089.333	689.75
1109.509	684.75
1129.602	655.75
1149.614	660.75
1169.545	651.75
1189.395	670.75
1209.165	655.75
1228.856	671.75
1248.467	669.75
1268	643.75
1287.455	625.75
1306.832	648.75
1326.132	652.75
1345.354	635.75
1364.501	586.75
1383.572	557.75
1402.567	531.75
1421.487	543.75
1440.333	561.75
1459.104	566.75
1477.802	548.75
1496.426	538.75
1514.978	541.75
1533.457	511.75
1551.864	483.75
1570.199	496.75
1588.464	496.75
1606.657	481.75
1624.78	465.75
1642.834	472.75
1660.817	477.75
1678.732	475.75
1696.577	456.75
1714.355	429.75
1732.064	428.75
1749.705	403.75
1767.28	382.75
1784.787	384.75
1802.228	373.75
1819.603	340.75
1836.913	350.75
1854.156	358.75
1871.335	370.75
1888.449	368.75
1905.499	357.75
1922.485	364.75
1939.408	366.75
1956.267	343.75
1973.063	309.75
1989.797	296.75
2006.469	296.75
2023.078	296.75
2039.627	285.75
2056.114	291.75
2072.54	293.75
2088.906	305.75
2105.211	289.75
2121.457	268.75
2137.643	271.75
2153.77	265.75
2169.838	262.75
2185.848	251.75
2201.799	244.75
2217.693	241.75
2233.529	244.75
2249.307	239.75
2265.029	232.75
2280.694	215.75
2296.302	210.75
2311.854	210.75
2327.351	214.75
2342.792	205.75
2358.178	210.75
2373.508	213.75
2388.785	224.75
2404.007	211.75
2419.174	214.75
2434.289	208.75
2449.349	210.75
2464.356	209.75
2479.311	200.75
2494.213	200.75
2509.062	197.75
2523.859	195.75
2538.605	191.75
2553.299	190.75
2567.941	190.75
2582.533	185.75
2597.073	177.75
2611.564	176.75
2626.004	165.75
2640.394	164.75
2654.734	158.75
2669.025	152.75
2683.266	153.75
2697.458	141.75
2711.602	137.75
2725.697	128.75
2739.744	133.75
2753.743	125.75
2767.695	114.75
2781.598	120.75
2795.455	122.75
2809.264	117.75
2823.026	119.75
2836.742	122.75
2850.412	115.75
2864.035	116.75
2877.613	109.75
2891.145	103.75
2904.631	103.75
2918.073	95.75
2931.469	88.75
2944.821	92.75
2958.128	89.75
2971.39	80.75
2984.609	76.75
2997.784	74.75
3010.915	69.75
3024.002	65.75
3037.046	60.75
3050.048	57.75
3063.006	60.75
3075.922	68.75
3088.795	60.75
3101.627	60.75
3114.416	56.75
3127.163	62.75
3139.869	56.75
3152.533	51.75
3165.157	49.75
3177.739	47.75
3190.28	41.75
3202.781	36.75
3215.241	33.75
3227.661	35.75
3240.041	34.75
3252.382	34.75
3264.682	30.75
3276.943	23.75
3289.165	24.75
3301.348	19.75
3313.492	21.75
3325.597	20.75
3337.663	21.75
3349.691	12.75
3361.681	17.75
3373.633	17.75
3385.547	10.75
3397.424	11.75
3409.263	11.75
3421.065	10.75
3432.829	13.75
3444.557	7.75
3456.247	8.75
3467.902	4.75
3479.519	8.75
3491.101	10.75
3502.646	-0.25
3514.155	5.75
3525.629	5.75
3537.067	1.75
3548.469	1.75
3559.837	-1.25
3571.169	0.75
3582.466	1.75
3593.728	-4.25
3604.956	-4.25
3616.149	-1.25
3627.307	-4.25
3638.432	-6.25
3649.523	-6.25
3660.579	-8.25
3671.602	-7.25
3682.591	-6.25
3693.547	-6.25
3704.47	-9.25
3715.359	-5.25
3726.216	-9.25
3737.039	-7.25
3747.83	-8.25
3758.589	-9.25
3769.315	-12.25
3780.008	-7.25
3790.67	-10.25
3801.299	-11.25
3811.897	-14.25
3822.463	-13.25
3832.998	-6.25
3843.501	-15.25
3853.973	-14.25
3864.414	-14.25
3874.823	-12.25
3885.202	-2.25
3895.55	-9.25
3905.868	-13.25
3916.155	-15.25
3926.411	-14.25
3936.638	-10.25
3946.834	-12.25
3957	-13.25
3967.137	-13.25
3977.244	-13.25
3987.321	-12.25
3997.369	-12.25
4007.388	-12.25
4017.377	-14.25
4027.338	-14.25
4037.269	-18.25
4047.172	-14.25
4057.046	-14.25
4066.891	-12.25
4076.708	-12.25
4086.497	-14.25
4096.257	-15.25
4105.989	-4.25
4115.694	-1.25
4125.37	-16.25
4135.019	-15.25
4142.237	-15.25