File: Data/Raman/2017-08-24 - Glass, alluminum 108/Glass/subtilis colony - 5s - I=1, no fixes_RamanShift_1.txt
Data from subtilis colony - 5s - I=1, no fixes_RamanShift_1.txt Node

Date: Thu Aug 24 11:27:38 IDT 2017
User: aro
Spectrometer: QEPB0276
Trigger mode: 0
Integration Time (sec): 5.000000E0
Scans to average: 1
Electric dark correction enabled: true
Nonlinearity correction enabled: false
Boxcar width: 0
XAxis mode: Raman Shifts
Number of Pixels in Spectrum: 1044
>>>>>Begin Spectral Data<<<<<
160.701	3.25
184.826	236.25
208.845	1223.25
232.758	1384.25
256.565	1529.25
280.267	1621.25
303.865	1781.25
327.359	1931.25
350.751	2085.25
374.04	2137.25
397.228	2085.25
420.315	2194.25
443.302	1996.25
466.189	1922.25
488.978	1866.25
511.668	1772.25
534.261	1719.25
556.756	1721.25
579.155	1710.25
601.459	1682.25
623.667	1620.25
645.781	1632.25
667.8	1586.25
689.726	1561.25
711.56	1514.25
733.301	1475.25
754.951	1481.25
776.509	1471.25
797.977	1453.25
819.355	1419.25
840.644	1409.25
861.844	1407.25
882.955	1400.25
903.979	1370.25
924.916	1411.25
945.766	1459.25
966.529	1435.25
987.208	1443.25
1007.801	1560.25
1028.309	1702.25
1048.734	1788.25
1069.075	1944.25
1089.333	2222.25
1109.509	2543.25
1129.602	2783.25
1149.614	3128.25
1169.545	3603.25
1189.395	3910.25
1209.165	4283.25
1228.856	4793.25
1248.467	5188.25
1268	5345.25
1287.455	5856.25
1306.832	7206.25
1326.132	8995.25
1345.354	10555.25
1364.501	11294.25
1383.572	11367.25
1402.567	11004.25
1421.487	10542.25
1440.333	10244.25
1459.104	9728.25
1477.802	8920.25
1496.426	8522.25
1514.978	8211.25
1533.457	7706.25
1551.864	7139.25
1570.199	6991.25
1588.464	6911.25
1606.657	6570.25
1624.78	6227.25
1642.834	6145.25
1660.817	6183.25
1678.732	5968.25
1696.577	5466.25
1714.355	4965.25
1732.064	4809.25
1749.705	4371.25
1767.28	4100.25
1784.787	4070.25
1802.228	4017.25
1819.603	3783.25
1836.913	3737.25
1854.156	3836.25
1871.335	3909.25
1888.449	3907.25
1905.499	3766.25
1922.485	3635.25
1939.408	3428.25
1956.267	2953.25
1973.063	2439.25
1989.797	2025.25
2006.469	1805.25
2023.078	1566.25
2039.627	1341.25
2056.114	1204.25
2072.54	1140.25
2088.906	1063.25
2105.211	950.25
2121.457	857.25
2137.643	787.25
2153.77	716.25
2169.838	671.25
2185.848	620.25
2201.799	604.25
2217.693	585.25
2233.529	572.25
2249.307	537.25
2265.029	507.25
2280.694	489.25
2296.302	457.25
2311.854	440.25
2327.351	422.25
2342.792	401.25
2358.178	408.25
2373.508	408.25
2388.785	393.25
2404.007	383.25
2419.174	383.25
2434.289	371.25
2449.349	374.25
2464.356	354.25
2479.311	344.25
2494.213	326.25
2509.062	324.25
2523.859	328.25
2538.605	322.25
2553.299	329.25
2567.941	308.25
2582.533	302.25
2597.073	281.25
2611.564	266.25
2626.004	255.25
2640.394	241.25
2654.734	228.25
2669.025	217.25
2683.266	213.25
2697.458	198.25
2711.602	194.25
2725.697	188.25
2739.744	191.25
2753.743	189.25
2767.695	171.25
2781.598	163.25
2795.455	157.25
2809.264	156.25
2823.026	160.25
2836.742	152.25
2850.412	144.25
2864.035	148.25
2877.613	148.25
2891.145	136.25
2904.631	135.25
2918.073	129.25
2931.469	135.25
2944.821	135.25
2958.128	149.25
2971.39	154.25
2984.609	170.25
2997.784	178.25
3010.915	185.25
3024.002	193.25
3037.046	212.25
3050.048	230.25
3063.006	246.25
3075.922	290.25
3088.795	310.25
3101.627	342.25
3114.416	357.25
3127.163	391.25
3139.869	420.25
3152.533	443.25
3165.157	462.25
3177.739	479.25
3190.28	515.25
3202.781	559.25
3215.241	598.25
3227.661	654.25
3240.041	706.25
3252.382	769.25
3264.682	795.25
3276.943	824.25
3289.165	794.25
3301.348	739.25
3313.492	712.25
3325.597	663.25
3337.663	636.25
3349.691	608.25
3361.681	565.25
3373.633	515.25
3385.547	463.25
3397.424	416.25
3409.263	380.25
3421.065	354.25
3432.829	326.25
3444.557	286.25
3456.247	244.25
3467.902	217.25
3479.519	187.25
3491.101	174.25
3502.646	145.25
3514.155	130.25
3525.629	112.25
3537.067	90.25
3548.469	80.25
3559.837	68.25
3571.169	51.25
3582.466	51.25
3593.728	43.25
3604.956	35.25
3616.149	31.25
3627.307	27.25
3638.432	22.25
3649.523	19.25
3660.579	15.25
3671.602	8.25
3682.591	4.25
3693.547	1.25
3704.47	-1.75
3715.359	0.25
3726.216	-5.75
3737.039	-6.75
3747.83	-8.75
3758.589	-12.75
3769.315	-14.75
3780.008	-15.75
3790.67	-15.75
3801.299	-21.75
3811.897	-17.75
3822.463	-22.75
3832.998	-16.75
3843.501	-24.75
3853.973	-24.75
3864.414	-25.75
3874.823	-21.75
3885.202	-10.75
3895.55	-25.75
3905.868	-27.75
3916.155	-24.75
3926.411	-26.75
3936.638	-25.75
3946.834	-25.75
3957	-21.75
3967.137	-26.75
3977.244	-25.75
3987.321	-26.75
3997.369	-23.75
4007.388	-26.75
4017.377	-27.75
4027.338	-24.75
4037.269	-31.75
4047.172	-31.75
4057.046	-27.75
4066.891	-25.75
4076.708	-25.75
4086.497	-27.75
4096.257	-30.75
4105.989	-9.75
4115.694	-5.75
4125.37	-29.75
4135.019	-32.75
4142.237	-33.75