File: Data/Raman/2017-08-24 - Glass, alluminum 108/Aluminum II [full set]/Alu-EC-control 30s,I=1, BC=3, 1sta _RamanShift_2.txt
Data from Alu-control 30s,I=1, BC=3, 1sta _RamanShift_2.txt Node

Date: Thu Aug 24 13:30:51 IDT 2017
User: aro
Spectrometer: QEPB0276
Trigger mode: 0
Integration Time (sec): 3.000000E1
Scans to average: 1
Electric dark correction enabled: true
Nonlinearity correction enabled: false
Boxcar width: 5
XAxis mode: Raman Shifts
Number of Pixels in Spectrum: 1044
>>>>>Begin Spectral Data<<<<<
160.701	169.58
184.826	502.95
208.845	863.93
232.758	1162.57
256.565	1253.75
280.267	1351.3
303.865	1437.39
327.359	1513.02
350.751	1607.84
374.04	1723.84
397.228	2038.39
420.315	2103.66
443.302	2038.66
466.189	1679.57
488.978	1468.57
511.668	1169.2
534.261	852.84
556.756	683.75
579.155	633.66
601.459	611.66
623.667	655.48
645.781	652.93
667.8	613.3
689.726	487.02
711.56	455.75
733.301	476.75
754.951	500.2
776.509	537.57
797.977	543.2
819.355	531.93
840.644	478.02
861.844	417.57
882.955	369.48
903.979	344.3
924.916	334.93
945.766	333.84
966.529	327.2
987.208	320.93
1007.801	326.75
1028.309	341.02
1048.734	351.57
1069.075	352.02
1089.333	339.48
1109.509	319.2
1129.602	302.39
1149.614	303.02
1169.545	308.75
1189.395	311.48
1209.165	309.2
1228.856	306.3
1248.467	291.3
1268	272.84
1287.455	265.57
1306.832	269.48
1326.132	271.93
1345.354	266.48
1364.501	257.84
1383.572	246.93
1402.567	236.3
1421.487	230.3
1440.333	234.11
1459.104	239.48
1477.802	242.66
1496.426	248.02
1514.978	248.93
1533.457	249.84
1551.864	250.2
1570.199	239.66
1588.464	218.66
1606.657	208.02
1624.78	204.39
1642.834	205.84
1660.817	211.48
1678.732	215.93
1696.577	212.2
1714.355	199.2
1732.064	182.75
1749.705	168.3
1767.28	160.66
1784.787	157.3
1802.228	154.75
1819.603	144.39
1836.913	135.48
1854.156	131.75
1871.335	131.75
1888.449	134.66
1905.499	136.2
1922.485	140.66
1939.408	138.2
1956.267	130.39
1973.063	115.93
1989.797	105.93
2006.469	100.75
2023.078	95.66
2039.627	92.57
2056.114	93.48
2072.54	97.39
2088.906	97.93
2105.211	90.93
2121.457	84.66
2137.643	78.66
2153.77	71.57
2169.838	65.39
2185.848	59.48
2201.799	57.3
2217.693	57.3
2233.529	56.48
2249.307	53.75
2265.029	49.84
2280.694	49.11
2296.302	46.75
2311.854	58.66
2327.351	74.3
2342.792	68.75
2358.178	37.93
2373.508	28.93
2388.785	27.48
2404.007	24.93
2419.174	22.2
2434.289	20.84
2449.349	20.11
2464.356	17.02
2479.311	13.66
2494.213	10.66
2509.062	11.93
2523.859	11.2
2538.605	10.66
2553.299	10.2
2567.941	10.02
2582.533	7.48
2597.073	4.2
2611.564	1.11
2626.004	-0.89
2640.394	-4.61
2654.734	-6.98
2669.025	-9.52
2683.266	-9.8
2697.458	-11.52
2711.602	-11.16
2725.697	-8.98
2739.744	-6.8
2753.743	-7.8
2767.695	-13.34
2781.598	-16.7
2795.455	-19.25
2809.264	-18.07
2823.026	-15.7
2836.742	-15.43
2850.412	-16.98
2864.035	-17.52
2877.613	-19.98
2891.145	-24.52
2904.631	-28.89
2918.073	-30.07
2931.469	-29.89
2944.821	-30.07
2958.128	-30.07
2971.39	-29.61
2984.609	-29.7
2997.784	-32.16
3010.915	-35.43
3024.002	-37.34
3037.046	-38.7
3050.048	-37.7
3063.006	-37.16
3075.922	-38.25
3088.795	-39.34
3101.627	-41.89
3114.416	-42.43
3127.163	-44.25
3139.869	-45.25
3152.533	-45.34
3165.157	-44.16
3177.739	-43.7
3190.28	-44.16
3202.781	-44.8
3215.241	-45.61
3227.661	-47.34
3240.041	-49.61
3252.382	-50.8
3264.682	-52.7
3276.943	-51.43
3289.165	-49.8
3301.348	-48.98
3313.492	-48.89
3325.597	-50.52
3337.663	-51.52
3349.691	-52.25
3361.681	-54.16
3373.633	-55.8
3385.547	-56.7
3397.424	-55.25
3409.263	-55.34
3421.065	-54.8
3432.829	-54.34
3444.557	-53.16
3456.247	-52.43
3467.902	-51.43
3479.519	-53.34
3491.101	-55.07
3502.646	-55.8
3514.155	-55.98
3525.629	-56.16
3537.067	-55.34
3548.469	-54.16
3559.837	-54.16
3571.169	-53.43
3582.466	-53.61
3593.728	-55.52
3604.956	-57.98
3616.149	-59.25
3627.307	-59.52
3638.432	-59.8
3649.523	-59.34
3660.579	-58.89
3671.602	-58.16
3682.591	-57.25
3693.547	-55.8
3704.47	-56.52
3715.359	-57.34
3726.216	-59.34
3737.039	-61.16
3747.83	-61.16
3758.589	-60.52
3769.315	-60.07
3780.008	-62.61
3790.67	-62.7
3801.299	-59.25
3811.897	-57.16
3822.463	-58.7
3832.998	-60.89
3843.501	-61.7
3853.973	-60.61
3864.414	-49.16
3874.823	-5.43
3885.202	5.39
3895.55	-10.61
3905.868	-50.7
3916.155	-57.98
3926.411	-60.07
3936.638	-60.98
3946.834	-60.98
3957	-59.16
3967.137	-56.52
3977.244	-55.89
3987.321	-54.61
3997.369	-56.07
4007.388	-58.52
4017.377	-59.98
4027.338	-60.34
4037.269	-59.89
4047.172	-59.07
4057.046	-57.89
4066.891	-57.8
4076.708	-57.61
4086.497	-58.43
4096.257	-37.61
4105.989	-1.34
4115.694	-2.98
4125.37	-33.61
4135.019	-61.36
4142.237	-59.92