File: Data/Raman/2017-08-24 - Glass, alluminum 108/Aluminum II [full set]/Alu-BS-control 30s,I=1, BC=3, 1sta _RamanShift_1.txt
Data from Alu-BS-control 30s,I=1, BC=3, 1sta _RamanShift_1.txt Node

Date: Thu Aug 24 13:42:51 IDT 2017
User: aro
Spectrometer: QEPB0276
Trigger mode: 0
Integration Time (sec): 3.000000E1
Scans to average: 1
Electric dark correction enabled: true
Nonlinearity correction enabled: false
Boxcar width: 5
XAxis mode: Raman Shifts
Number of Pixels in Spectrum: 1044
>>>>>Begin Spectral Data<<<<<
160.701	181
184.826	526
208.845	900.68
232.758	1216.86
256.565	1314.68
280.267	1411.59
303.865	1501.23
327.359	1578.86
350.751	1673.77
374.04	1786.14
397.228	2087.86
420.315	2145.23
443.302	2077.59
466.189	1731.05
488.978	1522.95
511.668	1230.41
534.261	922.23
556.756	754.59
579.155	705.23
601.459	683.5
623.667	724.86
645.781	720.59
667.8	679.05
689.726	554.23
711.56	524.32
733.301	544.86
754.951	567.23
776.509	600.05
797.977	603.32
819.355	592.41
840.644	541.68
861.844	482.77
882.955	434.23
903.979	407.95
924.916	398.5
945.766	393.05
966.529	384.23
987.208	374.95
1007.801	379.5
1028.309	397.14
1048.734	410.05
1069.075	412.41
1089.333	397.41
1109.509	376.86
1129.602	359.32
1149.614	356.77
1169.545	361.05
1189.395	365.68
1209.165	365.5
1228.856	364.23
1248.467	349.23
1268	330.77
1287.455	320.77
1306.832	322.23
1326.132	321.86
1345.354	313.23
1364.501	304.5
1383.572	295.68
1402.567	285.5
1421.487	278.86
1440.333	282.59
1459.104	287.68
1477.802	286.14
1496.426	285.95
1514.978	287.77
1533.457	288.59
1551.864	289.86
1570.199	278.95
1588.464	256.95
1606.657	244.23
1624.78	239.23
1642.834	238.86
1660.817	241.86
1678.732	240.32
1696.577	232.23
1714.355	219.05
1732.064	203.41
1749.705	188.23
1767.28	178.59
1784.787	174.95
1802.228	168.59
1819.603	158.41
1836.913	150.77
1854.156	147.41
1871.335	144.95
1888.449	145.23
1905.499	145.68
1922.485	147.41
1939.408	142.59
1956.267	131.86
1973.063	118.5
1989.797	111.68
2006.469	108.41
2023.078	103.95
2039.627	99.41
2056.114	96.68
2072.54	97.95
2088.906	95.59
2105.211	91.5
2121.457	86.23
2137.643	81.14
2153.77	74.77
2169.838	68.14
2185.848	64.95
2201.799	61.41
2217.693	58.41
2233.529	55.5
2249.307	53.5
2265.029	48.32
2280.694	47.14
2296.302	45.23
2311.854	59.77
2327.351	75.68
2342.792	71.14
2358.178	40.14
2373.508	28.14
2388.785	26.32
2404.007	23.05
2419.174	20.77
2434.289	17.95
2449.349	15.95
2464.356	14.14
2479.311	12.32
2494.213	12.14
2509.062	11.59
2523.859	10.32
2538.605	6.77
2553.299	5.68
2567.941	4.41
2582.533	0.86
2597.073	-0.68
2611.564	-2.5
2626.004	-3.05
2640.394	-6.14
2654.734	-9.68
2669.025	-12.05
2683.266	-14.05
2697.458	-16.5
2711.602	-19.41
2725.697	-19.14
2739.744	-19.59
2753.743	-19.68
2767.695	-21.77
2781.598	-22.05
2795.455	-22.59
2809.264	-22.59
2823.026	-23.23
2836.742	-23.77
2850.412	-26.77
2864.035	-28.86
2877.613	-31.5
2891.145	-33.32
2904.631	-36.5
2918.073	-37.77
2931.469	-38.68
2944.821	-38.5
2958.128	-39.41
2971.39	-40.86
2984.609	-42.05
2997.784	-44.14
3010.915	-45.77
3024.002	-46.95
3037.046	-49.5
3050.048	-47.86
3063.006	-47.68
3075.922	-47.95
3088.795	-49.59
3101.627	-51.41
3114.416	-52.86
3127.163	-53.86
3139.869	-54.41
3152.533	-55.59
3165.157	-55.23
3177.739	-55.14
3190.28	-47.59
3202.781	-7.23
3215.241	-9.05
3227.661	-54.41
3240.041	-61.14
3252.382	-60.59
3264.682	-61.68
3276.943	-60.59
3289.165	-60.41
3301.348	-60.86
3313.492	-61.86
3325.597	-63.5
3337.663	-62.95
3349.691	-63.68
3361.681	-63.5
3373.633	-64.68
3385.547	-64.32
3397.424	-63.77
3409.263	-65.41
3421.065	-67.14
3432.829	-67.23
3444.557	-67.14
3456.247	-65.59
3467.902	-64.41
3479.519	-64.86
3491.101	-66.23
3502.646	-67.86
3514.155	-68.32
3525.629	-69.59
3537.067	-69.68
3548.469	-69.77
3559.837	-68.86
3571.169	-68.32
3582.466	-67.59
3593.728	-67.86
3604.956	-68.32
3616.149	-69.05
3627.307	-69.05
3638.432	-70.14
3649.523	-71.77
3660.579	-73.05
3671.602	-73.68
3682.591	-73.59
3693.547	-71.05
3704.47	-69.68
3715.359	-69.5
3726.216	-70.32
3737.039	-71.14
3747.83	-70.41
3758.589	-71.23
3769.315	-73.41
3780.008	-76.86
3790.67	-76.59
3801.299	-73.59
3811.897	-71.05
3822.463	-71.86
3832.998	-72.14
3843.501	-71.41
3853.973	-70.32
3864.414	-56.68
3874.823	0.59
3885.202	14.5
3895.55	-7.95
3905.868	-63.05
3916.155	-72.32
3926.411	-72.95
3936.638	-72.23
3946.834	-71.5
3957	-68.68
3967.137	-68.14
3977.244	-70.23
3987.321	-71.59
3997.369	-72.95
4007.388	-74.59
4017.377	-73.32
4027.338	-73.05
4037.269	-72.23
4047.172	-70.95
4057.046	-70.5
4066.891	-71.41
4076.708	-72.95
4086.497	-74.14
4096.257	-47.23
4105.989	-0.41
4115.694	-0.77
4125.37	-39.41
4135.019	-73.83
4142.237	-72.5