File: Data/Raman/2017-08-24 - Glass, alluminum 108/Aluminum II [full set]/Alu-EC-control 30s,I=1, BC=3, 1sta _RamanShift_1.txt
Data from Alu-control 30s,I=1, BC=3, 1sta _RamanShift_1.txt Node

Date: Thu Aug 24 13:30:21 IDT 2017
User: aro
Spectrometer: QEPB0276
Trigger mode: 0
Integration Time (sec): 3.000000E1
Scans to average: 1
Electric dark correction enabled: true
Nonlinearity correction enabled: false
Boxcar width: 5
XAxis mode: Raman Shifts
Number of Pixels in Spectrum: 1044
>>>>>Begin Spectral Data<<<<<
160.701	169.46
184.826	505.12
208.845	866.4
232.758	1168.31
256.565	1256.85
280.267	1352.31
303.865	1433.67
327.359	1512.22
350.751	1608.85
374.04	1722.58
397.228	2037.22
420.315	2104.94
443.302	2039.58
466.189	1678.12
488.978	1463.4
511.668	1167.31
534.261	850.58
556.756	683.94
579.155	629.94
601.459	612.22
623.667	655.94
645.781	652.85
667.8	611.85
689.726	487.49
711.56	457.12
733.301	477.22
754.951	502.22
776.509	539.58
797.977	540.67
819.355	525.85
840.644	474.49
861.844	417.49
882.955	372.67
903.979	348.85
924.916	339.49
945.766	332.12
966.529	324.67
987.208	317.67
1007.801	322.4
1028.309	335.94
1048.734	347.22
1069.075	349.94
1089.333	338.12
1109.509	319.12
1129.602	303.85
1149.614	301.94
1169.545	306.4
1189.395	308.22
1209.165	307.94
1228.856	305.67
1248.467	289.4
1268	270.03
1287.455	262.4
1306.832	265.49
1326.132	266.76
1345.354	260.67
1364.501	251.76
1383.572	239.49
1402.567	228.94
1421.487	224.49
1440.333	230.12
1459.104	237.4
1477.802	240.4
1496.426	243.76
1514.978	244.67
1533.457	245.22
1551.864	246.03
1570.199	236.76
1588.464	214.31
1606.657	203.58
1624.78	199.67
1642.834	201.58
1660.817	206.22
1678.732	209.03
1696.577	205.31
1714.355	193.49
1732.064	176.22
1749.705	163.67
1767.28	159.49
1784.787	159.58
1802.228	155.94
1819.603	143.58
1836.913	133.22
1854.156	127.94
1871.335	127.67
1888.449	129.03
1905.499	129.76
1922.485	134.67
1939.408	133.4
1956.267	127.4
1973.063	114.76
1989.797	105.4
2006.469	100.31
2023.078	97.31
2039.627	90.85
2056.114	90.03
2072.54	93.12
2088.906	93.67
2105.211	89.76
2121.457	84.76
2137.643	79.49
2153.77	74.22
2169.838	68.22
2185.848	62.22
2201.799	58.49
2217.693	55.94
2233.529	55.12
2249.307	52.22
2265.029	49.03
2280.694	45.85
2296.302	44.4
2311.854	57.85
2327.351	75.4
2342.792	71.4
2358.178	40.49
2373.508	30.4
2388.785	28.31
2404.007	24.4
2419.174	20.31
2434.289	18.58
2449.349	18.12
2464.356	16.58
2479.311	14.31
2494.213	13.03
2509.062	13.31
2523.859	12.58
2538.605	9.67
2553.299	8.85
2567.941	8.13
2582.533	6.03
2597.073	4.67
2611.564	1.85
2626.004	-0.33
2640.394	-4.42
2654.734	-6.6
2669.025	-7.42
2683.266	-8.33
2697.458	-10.15
2711.602	-10.24
2725.697	-9.24
2739.744	-7.51
2753.743	-8.06
2767.695	-11.42
2781.598	-13.15
2795.455	-14.97
2809.264	-15.78
2823.026	-15.15
2836.742	-15.6
2850.412	-16.6
2864.035	-18.51
2877.613	-19.78
2891.145	-23.78
2904.631	-26.97
2918.073	-27.87
2931.469	-26.69
2944.821	-27.33
2958.128	-26.69
2971.39	-27.78
2984.609	-28.6
2997.784	-31.6
3010.915	-34.06
3024.002	-36.42
3037.046	-37.97
3050.048	-36.33
3063.006	-35.42
3075.922	-36.6
3088.795	-37.97
3101.627	-40.24
3114.416	-41.88
3127.163	-43.88
3139.869	-44.33
3152.533	-44.6
3165.157	-42.88
3177.739	-42.97
3190.28	-43.42
3202.781	-44.33
3215.241	-45.51
3227.661	-45.51
3240.041	-47.78
3252.382	-47.15
3264.682	-47.6
3276.943	-47.15
3289.165	-47.42
3301.348	-47.51
3313.492	-47.78
3325.597	-50.06
3337.663	-51.06
3349.691	-52.42
3361.681	-53.6
3373.633	-53.51
3385.547	-52.69
3397.424	-51.15
3409.263	-51.78
3421.065	-52.78
3432.829	-52.33
3444.557	-52.78
3456.247	-51.6
3467.902	-51.6
3479.519	-52.51
3491.101	-52.69
3502.646	-52.51
3514.155	-52.24
3525.629	-51.97
3537.067	-51.78
3548.469	-51.97
3559.837	-53.51
3571.169	-53.51
3582.466	-53.97
3593.728	-54.6
3604.956	-55.69
3616.149	-55.42
3627.307	-55.78
3638.432	-55.42
3649.523	-55.88
3660.579	-57.33
3671.602	-57.06
3682.591	-57.06
3693.547	-57.33
3704.47	-58.06
3715.359	-58.88
3726.216	-59.33
3737.039	-59.33
3747.83	-58.33
3758.589	-56.06
3769.315	-55.97
3780.008	-58.51
3790.67	-59.88
3801.299	-58.51
3811.897	-56.88
3822.463	-58.42
3832.998	-60.42
3843.501	-60.42
3853.973	-57.97
3864.414	-45.97
3874.823	-1.88
3885.202	9.22
3895.55	-8.24
3905.868	-49.51
3916.155	-57.24
3926.411	-58.51
3936.638	-59.15
3946.834	-59.24
3957	-56.24
3967.137	-53.6
3977.244	-53.88
3987.321	-54.78
3997.369	-55.6
4007.388	-57.42
4017.377	-58.33
4027.338	-59.88
4037.269	-59.15
4047.172	-57.24
4057.046	-55.69
4066.891	-55.24
4076.708	-55.24
4086.497	-57.15
4096.257	-38.78
4105.989	-3.42
4115.694	-4.06
4125.37	-33.69
4135.019	-61.76
4142.237	-60.21