File: Data/Raman/2017-08-24 - Glass, alluminum 108/Aluminum II [full set]/Alu-BS-BLANK 30s,I=1, BC=3, 1sta _RamanShift_1.txt
Data from Alu-BS-BLANK 30s,I=1, BC=3, 1sta _RamanShift_1.txt Node

Date: Thu Aug 24 13:40:21 IDT 2017
User: aro
Spectrometer: QEPB0276
Trigger mode: 0
Integration Time (sec): 3.000000E1
Scans to average: 1
Electric dark correction enabled: true
Nonlinearity correction enabled: false
Boxcar width: 5
XAxis mode: Raman Shifts
Number of Pixels in Spectrum: 1044
>>>>>Begin Spectral Data<<<<<
160.701	182.58
184.826	560.95
208.845	971.48
232.758	1311.84
256.565	1413.84
280.267	1522.02
303.865	1624.3
327.359	1713.39
350.751	1824.75
374.04	1951.57
397.228	2298.75
420.315	2370.39
443.302	2298.66
466.189	1903.93
488.978	1666.3
511.668	1328.02
534.261	970.75
556.756	774.57
579.155	718.2
601.459	695.11
623.667	737.66
645.781	731.11
667.8	684.75
689.726	550.3
711.56	515.57
733.301	542.66
754.951	574.11
776.509	617.84
797.977	626.3
819.355	613.2
840.644	552.75
861.844	482.84
882.955	432.57
903.979	404.57
924.916	392.66
945.766	386.93
966.529	379.3
987.208	374.02
1007.801	380.48
1028.309	398.66
1048.734	414.11
1069.075	417.2
1089.333	401.66
1109.509	378.93
1129.602	360.48
1149.614	358.57
1169.545	363.39
1189.395	368.11
1209.165	369.11
1228.856	367.48
1248.467	351.02
1268	330.66
1287.455	320.02
1306.832	322.2
1326.132	323.39
1345.354	315.3
1364.501	305.75
1383.572	296.02
1402.567	285.02
1421.487	281.2
1440.333	293.57
1459.104	299.11
1477.802	299.84
1496.426	297.39
1514.978	296.11
1533.457	295.57
1551.864	293.2
1570.199	284.2
1588.464	261.11
1606.657	248.02
1624.78	243.39
1642.834	246.57
1660.817	253.02
1678.732	255.02
1696.577	249.02
1714.355	238.57
1732.064	221.75
1749.705	206.48
1767.28	198.02
1784.787	193.93
1802.228	185.2
1819.603	170.48
1836.913	160.2
1854.156	156.66
1871.335	157.66
1888.449	162.84
1905.499	168.02
1922.485	170.02
1939.408	164.84
1956.267	152.48
1973.063	137.11
1989.797	126.2
2006.469	122.11
2023.078	118.11
2039.627	113.75
2056.114	113.3
2072.54	118.48
2088.906	119.39
2105.211	112.93
2121.457	104.48
2137.643	97.93
2153.77	91.75
2169.838	83.93
2185.848	78.75
2201.799	75.84
2217.693	73.93
2233.529	72.48
2249.307	69.66
2265.029	65.48
2280.694	62.2
2296.302	58.48
2311.854	71.39
2327.351	91.02
2342.792	85.3
2358.178	54.02
2373.508	43.2
2388.785	42.3
2404.007	39.39
2419.174	36.57
2434.289	33.11
2449.349	30.02
2464.356	28.02
2479.311	27.57
2494.213	26.02
2509.062	27.48
2523.859	25.93
2538.605	23.39
2553.299	22.48
2567.941	21.57
2582.533	18.57
2597.073	15.2
2611.564	11.84
2626.004	9.2
2640.394	5.2
2654.734	3.75
2669.025	1.93
2683.266	1.2
2697.458	-1.98
2711.602	-2.8
2725.697	-2.34
2739.744	-1.43
2753.743	-3.98
2767.695	-9.16
2781.598	-10.34
2795.455	-11.16
2809.264	-9.25
2823.026	-8.8
2836.742	-9.61
2850.412	-12.52
2864.035	-12.89
2877.613	-14.98
2891.145	-18.61
2904.631	-22.25
2918.073	-24.43
2931.469	-23.7
2944.821	-24.98
2958.128	-23.7
2971.39	-24.8
2984.609	-26.25
2997.784	-29.8
3010.915	-32.7
3024.002	-34.52
3037.046	-35.52
3050.048	-34.89
3063.006	-35.43
3075.922	-36.07
3088.795	-36.8
3101.627	-38.43
3114.416	-39.89
3127.163	-41.16
3139.869	-43.16
3152.533	-42.52
3165.157	-42.34
3177.739	-42.43
3190.28	-43.8
3202.781	-44.43
3215.241	-45.98
3227.661	-47.16
3240.041	-48.25
3252.382	-48.25
3264.682	-47.7
3276.943	-47.16
3289.165	-46.7
3301.348	-49.52
3313.492	-50.89
3325.597	-52.61
3337.663	-51.43
3349.691	-51.89
3361.681	-52.07
3373.633	-52.8
3385.547	-53.16
3397.424	-52.7
3409.263	-54.16
3421.065	-54.61
3432.829	-54.89
3444.557	-54.07
3456.247	-53.07
3467.902	-51.89
3479.519	-52.8
3491.101	-54.43
3502.646	-54.7
3514.155	-56.8
3525.629	-57.89
3537.067	-58.34
3548.469	-57.34
3559.837	-55.89
3571.169	-54.43
3582.466	-55.16
3593.728	-55.52
3604.956	-56.43
3616.149	-56.43
3627.307	-57.89
3638.432	-58.07
3649.523	-59.07
3660.579	-60.16
3671.602	-60.8
3682.591	-60.16
3693.547	-58.89
3704.47	-58.89
3715.359	-59.98
3726.216	-60.8
3737.039	-60.43
3747.83	-58.89
3758.589	-59.43
3769.315	-60.25
3780.008	-64.43
3790.67	-63.52
3801.299	-60.7
3811.897	-57.7
3822.463	-59.34
3832.998	-60.8
3843.501	-60.52
3853.973	-60.52
3864.414	-53.07
3874.823	-16.7
3885.202	-7.7
3895.55	-19.25
3905.868	-53.61
3916.155	-58.25
3926.411	-59.34
3936.638	-59.98
3946.834	-61.16
3957	-59.98
3967.137	-59.25
3977.244	-59.25
3987.321	-59.43
3997.369	-59.52
4007.388	-59.98
4017.377	-60.16
4027.338	-60.16
4037.269	-59.89
4047.172	-58.7
4057.046	-58.34
4066.891	-58.8
4076.708	-61.07
4086.497	-62.25
4096.257	-42.98
4105.989	-8.8
4115.694	-8.89
4125.37	-35.25
4135.019	-60.81
4142.237	-59.42