File: Data/Raman/2017-08-24 - Glass, alluminum 108/Aluminum II [full set]/Alu-BS-1-2 30s,I=1, BC=3, 1sta _RamanShift_1.txt
Data from Alu-BS-1-2 30s,I=1, BC=3, 1sta _RamanShift_1.txt Node

Date: Thu Aug 24 13:45:51 IDT 2017
User: aro
Spectrometer: QEPB0276
Trigger mode: 0
Integration Time (sec): 3.000000E1
Scans to average: 1
Electric dark correction enabled: true
Nonlinearity correction enabled: false
Boxcar width: 5
XAxis mode: Raman Shifts
Number of Pixels in Spectrum: 1044
>>>>>Begin Spectral Data<<<<<
160.701	182.42
184.826	535.85
208.845	918.48
232.758	1241.2
256.565	1339.75
280.267	1435.75
303.865	1521.57
327.359	1601.93
350.751	1704.39
374.04	1822.57
397.228	2136.48
420.315	2198.48
443.302	2137.2
466.189	1775.2
488.978	1560.66
511.668	1252.3
534.261	923.75
556.756	747.57
579.155	695.02
601.459	672.93
623.667	714.48
645.781	709.84
667.8	667.57
689.726	536.84
711.56	505.93
733.301	529.2
754.951	551.39
776.509	587.75
797.977	591.66
819.355	581.57
840.644	526.93
861.844	465.48
882.955	415.48
903.979	388.75
924.916	376.48
945.766	370.3
966.529	361.39
987.208	353.2
1007.801	360.2
1028.309	374.93
1048.734	388.3
1069.075	389.66
1089.333	375.66
1109.509	353.11
1129.602	333.39
1149.614	328.84
1169.545	336.48
1189.395	339.11
1209.165	341.57
1228.856	339.39
1248.467	326.66
1268	303.57
1287.455	291.84
1306.832	291.48
1326.132	292.57
1345.354	289.57
1364.501	281.3
1383.572	270.02
1402.567	257.66
1421.487	253.11
1440.333	259.39
1459.104	266.93
1477.802	268.66
1496.426	269.93
1514.978	270.2
1533.457	270.75
1551.864	272.02
1570.199	260.93
1588.464	240.3
1606.657	227.75
1624.78	223.93
1642.834	224.75
1660.817	229.57
1678.732	230.84
1696.577	224.75
1714.355	212.84
1732.064	197.39
1749.705	183.48
1767.28	178.39
1784.787	177.39
1802.228	172.48
1819.603	159.3
1836.913	147.2
1854.156	140.93
1871.335	140.75
1888.449	143.75
1905.499	146.2
1922.485	148.39
1939.408	147.02
1956.267	138.84
1973.063	125.48
1989.797	113.02
2006.469	109.39
2023.078	103.39
2039.627	97.48
2056.114	97.11
2072.54	101.57
2088.906	103.2
2105.211	100.2
2121.457	94.02
2137.643	86.48
2153.77	78.2
2169.838	69.48
2185.848	63.2
2201.799	60.11
2217.693	59.48
2233.529	58.84
2249.307	55.84
2265.029	51.84
2280.694	49.57
2296.302	47.2
2311.854	59.2
2327.351	75.3
2342.792	68.48
2358.178	37.11
2373.508	25.66
2388.785	26.11
2404.007	22.48
2419.174	19.48
2434.289	17.66
2449.349	15.75
2464.356	13.57
2479.311	10.84
2494.213	9.48
2509.062	10.66
2523.859	9.75
2538.605	7.66
2553.299	7.2
2567.941	5.02
2582.533	3.02
2597.073	1.02
2611.564	-1.52
2626.004	-4.07
2640.394	-7.43
2654.734	-10.07
2669.025	-12.34
2683.266	-14.25
2697.458	-17.16
2711.602	-18.7
2725.697	-18.7
2739.744	-16.43
2753.743	-15.98
2767.695	-17.89
2781.598	-21.52
2795.455	-22.8
2809.264	-23.8
2823.026	-24.07
2836.742	-24.7
2850.412	-24.7
2864.035	-24.7
2877.613	-25.43
2891.145	-30.34
2904.631	-34.43
2918.073	-36.89
2931.469	-36.61
2944.821	-37.43
2958.128	-37.8
2971.39	-38.61
2984.609	-38.7
2997.784	-40.07
3010.915	-41.98
3024.002	-43.98
3037.046	-45.61
3050.048	-45.07
3063.006	-45.7
3075.922	-46.25
3088.795	-47.61
3101.627	-49.8
3114.416	-51.07
3127.163	-51.7
3139.869	-51.43
3152.533	-51.98
3165.157	-51.89
3177.739	-52.7
3190.28	-53.61
3202.781	-53.52
3215.241	-55.61
3227.661	-56.98
3240.041	-59.43
3252.382	-58.98
3264.682	-58.98
3276.943	-57.07
3289.165	-57.16
3301.348	-57.25
3313.492	-56.52
3325.597	-57.89
3337.663	-60.25
3349.691	-61.52
3361.681	-63.61
3373.633	-64.52
3385.547	-63.8
3397.424	-61.43
3409.263	-59.89
3421.065	-60.07
3432.829	-59.61
3444.557	-60.61
3456.247	-61.98
3467.902	-63.34
3479.519	-65.34
3491.101	-65.61
3502.646	-64.16
3514.155	-63.25
3525.629	-62.61
3537.067	-62.98
3548.469	-62.52
3559.837	-63.52
3571.169	-64.16
3582.466	-64.43
3593.728	-65.61
3604.956	-64.98
3616.149	-65.43
3627.307	-66.07
3638.432	-67.8
3649.523	-68.89
3660.579	-69.61
3671.602	-69.34
3682.591	-67.89
3693.547	-66.52
3704.47	-65.8
3715.359	-67.43
3726.216	-68.43
3737.039	-69.8
3747.83	-70.07
3758.589	-69.52
3769.315	-68.89
3780.008	-72.61
3790.67	-71.98
3801.299	-69.07
3811.897	-67.52
3822.463	-69.7
3832.998	-72.43
3843.501	-71.7
3853.973	-69.89
3864.414	-54.8
3874.823	5.66
3885.202	21.2
3895.55	-0.34
3905.868	-58.98
3916.155	-69.34
3926.411	-71.61
3936.638	-71.7
3946.834	-69.8
3957	-66.34
3967.137	-64.25
3977.244	-65.16
3987.321	-66.89
3997.369	-67.89
4007.388	-69.43
4017.377	-70.52
4027.338	-71.43
4037.269	-69.16
4047.172	-67.25
4057.046	-65.7
4066.891	-66.07
4076.708	-67.61
4086.497	-68.89
4096.257	-44.25
4105.989	1.3
4115.694	0.2
4125.37	-38.52
4135.019	-73.25
4142.237	-72.42