File: Data/Raman/2017-08-24 - Glass, alluminum 108/Aluminum II [full set]/Alu-EC1-2 30s,I=1, BC=3, 1sta _RamanShift_2.txt
Data from Alu-EC1-2 30s,I=1, BC=3, 1sta _RamanShift_2.txt Node

Date: Thu Aug 24 13:33:21 IDT 2017
User: aro
Spectrometer: QEPB0276
Trigger mode: 0
Integration Time (sec): 3.000000E1
Scans to average: 1
Electric dark correction enabled: true
Nonlinearity correction enabled: false
Boxcar width: 5
XAxis mode: Raman Shifts
Number of Pixels in Spectrum: 1044
>>>>>Begin Spectral Data<<<<<
160.701	233.38
184.826	725.27
208.845	1263.38
232.758	1712.19
256.565	1836.38
280.267	1947.01
303.865	2042.19
327.359	2124.92
350.751	2218.74
374.04	2337.92
397.228	2659.01
420.315	2720.19
443.302	2640.56
466.189	2257.47
488.978	2026.74
511.668	1705.56
534.261	1363.19
556.756	1172.38
579.155	1113.01
601.459	1082.65
623.667	1123.47
645.781	1115.56
667.8	1069.19
689.726	930.01
711.56	890.19
733.301	900.38
754.951	920.28
776.509	953.83
797.977	959.74
819.355	943.74
840.644	883.38
861.844	816.1
882.955	761.1
903.979	728.28
924.916	713.56
945.766	706.1
966.529	690.56
987.208	674.56
1007.801	681.01
1028.309	698.65
1048.734	708.47
1069.075	704.47
1089.333	688.1
1109.509	663.74
1129.602	636.01
1149.614	628.19
1169.545	629.65
1189.395	627.01
1209.165	623.74
1228.856	621.92
1248.467	601.47
1268	571.01
1287.455	552.83
1306.832	551.92
1326.132	544.56
1345.354	514.74
1364.501	481.83
1383.572	465.65
1402.567	457.83
1421.487	460.01
1440.333	468.28
1459.104	466.01
1477.802	447.1
1496.426	425.65
1514.978	411.83
1533.457	408.47
1551.864	412.56
1570.199	413.65
1588.464	396.56
1606.657	383.47
1624.78	370.74
1642.834	367.92
1660.817	365.38
1678.732	348.19
1696.577	320.38
1714.355	296.38
1732.064	282.92
1749.705	270.1
1767.28	256.83
1784.787	240.28
1802.228	225.28
1819.603	213.1
1836.913	210.1
1854.156	211.47
1871.335	209.47
1888.449	204.56
1905.499	196.1
1922.485	185.65
1939.408	174.1
1956.267	163.47
1973.063	155.65
1989.797	153.1
2006.469	152.28
2023.078	148.47
2039.627	139.28
2056.114	134.38
2072.54	131.28
2088.906	127.74
2105.211	120.38
2121.457	116.83
2137.643	113.01
2153.77	107.28
2169.838	99.38
2185.848	93.56
2201.799	90.28
2217.693	88.65
2233.529	86.01
2249.307	84.19
2265.029	81.01
2280.694	79.01
2296.302	75.1
2311.854	88.01
2327.351	104.19
2342.792	101.83
2358.178	70.65
2373.508	61.83
2388.785	59.56
2404.007	57.56
2419.174	56.1
2434.289	52.83
2449.349	49.74
2464.356	44.83
2479.311	40.56
2494.213	36.65
2509.062	32.56
2523.859	30.01
2538.605	27.19
2553.299	26.56
2567.941	23.28
2582.533	19.1
2597.073	15.28
2611.564	13.01
2626.004	10.28
2640.394	5.65
2654.734	4.1
2669.025	2.83
2683.266	1.74
2697.458	-1.35
2711.602	-3.99
2725.697	-7.17
2739.744	-9.08
2753.743	-12.26
2767.695	-16.08
2781.598	-17.81
2795.455	-19.26
2809.264	-19.17
2823.026	-19.72
2836.742	-19.81
2850.412	-22.17
2864.035	-23.35
2877.613	-24.81
2891.145	-27.9
2904.631	-31.62
2918.073	-32.99
2931.469	-33.26
2944.821	-35.17
2958.128	-37.26
2971.39	-40.9
2984.609	-42.44
2997.784	-44.44
3010.915	-45.99
3024.002	-46.62
3037.046	-48.62
3050.048	-47.99
3063.006	-48.26
3075.922	-48.26
3088.795	-48.9
3101.627	-51.35
3114.416	-53.53
3127.163	-56.62
3139.869	-57.72
3152.533	-58.35
3165.157	-57.9
3177.739	-58.26
3190.28	-57.72
3202.781	-57.81
3215.241	-59.62
3227.661	-62.08
3240.041	-64.08
3252.382	-64.62
3264.682	-66.08
3276.943	-66.08
3289.165	-64.44
3301.348	-64.53
3313.492	-63.08
3325.597	-64.81
3337.663	-64.99
3349.691	-66.81
3361.681	-67.99
3373.633	-70.62
3385.547	-71.53
3397.424	-70.9
3409.263	-70.62
3421.065	-70.35
3432.829	-68.99
3444.557	-68.26
3456.247	-67.44
3467.902	-67.9
3479.519	-69.72
3491.101	-71.26
3502.646	-71.26
3514.155	-72.08
3525.629	-71.53
3537.067	-69.99
3548.469	-69.81
3559.837	-70.53
3571.169	-69.9
3582.466	-69.44
3593.728	-70.72
3604.956	-73.26
3616.149	-73.53
3627.307	-74.35
3638.432	-74.26
3649.523	-75.44
3660.579	-75.26
3671.602	-74.26
3682.591	-72.62
3693.547	-72.72
3704.47	-74.72
3715.359	-77.17
3726.216	-78.99
3737.039	-78.08
3747.83	-74.81
3758.589	-73.44
3769.315	-74.53
3780.008	-78.35
3790.67	-78.99
3801.299	-76.81
3811.897	-74.53
3822.463	-76.53
3832.998	-77.72
3843.501	-75.9
3853.973	-73.62
3864.414	-60.81
3874.823	-10.99
3885.202	-0.53
3895.55	-20.9
3905.868	-68.9
3916.155	-75.35
3926.411	-76.26
3936.638	-75.35
3946.834	-74.17
3957	-72.81
3967.137	-73.35
3977.244	-74.72
3987.321	-75.17
3997.369	-75.17
4007.388	-76.26
4017.377	-76.62
4027.338	-77.44
4037.269	-75.17
4047.172	-73.99
4057.046	-73.81
4066.891	-75.08
4076.708	-76.35
4086.497	-77.35
4096.257	-53.17
4105.989	-9.72
4115.694	-10.35
4125.37	-45.81
4135.019	-78.29
4142.237	-76.29