File: Data/Raman/2017-08-24 - Glass, alluminum 108/Aluminum II [full set]/Alu-EC-Blank 30s,I=1, BC=3, 1sta _RamanShift_2.txt
Data from Alu-Blank 30s,I=1, BC=3, 1sta _RamanShift_2.txt Node

Date: Thu Aug 24 13:28:51 IDT 2017
User: aro
Spectrometer: QEPB0276
Trigger mode: 0
Integration Time (sec): 3.000000E1
Scans to average: 1
Electric dark correction enabled: true
Nonlinearity correction enabled: false
Boxcar width: 5
XAxis mode: Raman Shifts
Number of Pixels in Spectrum: 1044
>>>>>Begin Spectral Data<<<<<
160.701	174.42
184.826	525.65
208.845	918.93
232.758	1242.75
256.565	1345.84
280.267	1438.93
303.865	1518.66
327.359	1586.11
350.751	1671.57
374.04	1780.75
397.228	2059.02
420.315	2112.11
443.302	2050.75
466.189	1726.48
488.978	1539.3
511.668	1275.66
534.261	995.84
556.756	843.11
579.155	797.75
601.459	777.84
623.667	815.84
645.781	811.3
667.8	769.75
689.726	653.75
711.56	625.84
733.301	644.66
754.951	665.39
776.509	690.2
797.977	689.57
819.355	674.39
840.644	627.3
861.844	574.75
882.955	531.02
903.979	506.02
924.916	494.39
945.766	489.02
966.529	475.75
987.208	463.48
1007.801	466.39
1028.309	480.66
1048.734	489.3
1069.075	488.84
1089.333	477.75
1109.509	459.2
1129.602	442.11
1149.614	435.2
1169.545	437.93
1189.395	437.75
1209.165	439.3
1228.856	438.11
1248.467	423.39
1268	403.66
1287.455	393.66
1306.832	396.48
1326.132	390.93
1345.354	377.3
1364.501	364.57
1383.572	353.66
1402.567	340.57
1421.487	334.39
1440.333	340.75
1459.104	344.48
1477.802	337.57
1496.426	335.48
1514.978	334.93
1533.457	335.93
1551.864	334.48
1570.199	326.11
1588.464	305.48
1606.657	294.57
1624.78	290.11
1642.834	288.84
1660.817	289.39
1678.732	283.3
1696.577	270.66
1714.355	255.3
1732.064	241.48
1749.705	227.2
1767.28	217.93
1784.787	211.48
1802.228	206.57
1819.603	196.02
1836.913	188.39
1854.156	182.48
1871.335	181.11
1888.449	182.11
1905.499	180.2
1922.485	179.2
1939.408	175.2
1956.267	164.39
1973.063	153.2
1989.797	143.02
2006.469	138.02
2023.078	130.93
2039.627	125.84
2056.114	125.3
2072.54	127.57
2088.906	127.84
2105.211	122.84
2121.457	116.39
2137.643	110.39
2153.77	103.3
2169.838	96.3
2185.848	89.11
2201.799	83.57
2217.693	82.3
2233.529	82.75
2249.307	81.75
2265.029	77.3
2280.694	73.02
2296.302	70.11
2311.854	80.2
2327.351	94.93
2342.792	89.57
2358.178	62.02
2373.508	51.48
2388.785	51.66
2404.007	47.66
2419.174	45.84
2434.289	42.3
2449.349	41.57
2464.356	38.02
2479.311	34.11
2494.213	31.48
2509.062	31.93
2523.859	32.93
2538.605	31.93
2553.299	26.57
2567.941	25.39
2582.533	23.02
2597.073	21.02
2611.564	18.66
2626.004	15.48
2640.394	11.84
2654.734	7.02
2669.025	4.48
2683.266	2.84
2697.458	1.48
2711.602	0.48
2725.697	0.48
2739.744	-0.07
2753.743	-2.61
2767.695	-7.61
2781.598	-10.8
2795.455	-12.98
2809.264	-12.98
2823.026	-11.98
2836.742	-11.8
2850.412	-12.52
2864.035	-13.43
2877.613	-15.34
2891.145	-19.98
2904.631	-24.25
2918.073	-27.25
2931.469	-27.98
2944.821	-29.34
2958.128	-28.7
2971.39	-28.61
2984.609	-28.52
2997.784	-30.25
3010.915	-33.52
3024.002	-35.52
3037.046	-38.52
3050.048	-39.07
3063.006	-38.7
3075.922	-39.07
3088.795	-38.98
3101.627	-41.61
3114.416	-41.89
3127.163	-43.34
3139.869	-43.98
3152.533	-45.52
3165.157	-46.98
3177.739	-47.8
3190.28	-47.7
3202.781	-46.89
3215.241	-47.07
3227.661	-48.89
3240.041	-49.98
3252.382	-49.98
3264.682	-51.25
3276.943	-51.61
3289.165	-52.16
3301.348	-52.89
3313.492	-53.61
3325.597	-53.7
3337.663	-52.61
3349.691	-52.7
3361.681	-53.89
3373.633	-55.43
3385.547	-56.61
3397.424	-56.34
3409.263	-57.16
3421.065	-56.61
3432.829	-54.61
3444.557	-53.8
3456.247	-53.07
3467.902	-53.98
3479.519	-56.8
3491.101	-58.89
3502.646	-59.52
3514.155	-58.8
3525.629	-58.43
3537.067	-56.7
3548.469	-56.89
3559.837	-56.52
3571.169	-57.98
3582.466	-58.98
3593.728	-60.8
3604.956	-62.16
3616.149	-61.7
3627.307	-60.7
3638.432	-58.43
3649.523	-59.07
3660.579	-60.25
3671.602	-61.43
3682.591	-61.52
3693.547	-61.43
3704.47	-61.61
3715.359	-62.07
3726.216	-62.61
3737.039	-62.8
3747.83	-62.8
3758.589	-61.25
3769.315	-62.61
3780.008	-65.43
3790.67	-66.34
3801.299	-63.89
3811.897	-62.89
3822.463	-63.89
3832.998	-64.98
3843.501	-63.52
3853.973	-61.7
3864.414	-50.43
3874.823	-8.8
3885.202	1.48
3895.55	-14.25
3905.868	-53.8
3916.155	-60.98
3926.411	-63.07
3936.638	-64.25
3946.834	-63.89
3957	-60.8
3967.137	-58.43
3977.244	-57.43
3987.321	-56.98
3997.369	-58.7
4007.388	-62.52
4017.377	-63.98
4027.338	-64.98
4037.269	-63.89
4047.172	-62.43
4057.046	-60.89
4066.891	-59.89
4076.708	-61.16
4086.497	-61.8
4096.257	-41.34
4105.989	-3.52
4115.694	-4.98
4125.37	-35.07
4135.019	-63.81
4142.237	-62.08