File: Data/Raman/2017-08-24 - Glass, alluminum 108/Aluminum II [full set]/Alu-EC-Blank 30s,I=1, BC=3, 1sta _RamanShift_1.txt
Data from Alu-Blank 30s,I=1, BC=3, 1sta _RamanShift_1.txt Node

Date: Thu Aug 24 13:27:52 IDT 2017
User: aro
Spectrometer: QEPB0276
Trigger mode: 0
Integration Time (sec): 3.000000E1
Scans to average: 1
Electric dark correction enabled: true
Nonlinearity correction enabled: false
Boxcar width: 5
XAxis mode: Raman Shifts
Number of Pixels in Spectrum: 1044
>>>>>Begin Spectral Data<<<<<
160.701	176.12
184.826	534.62
208.845	926.12
232.758	1256.31
256.565	1361.03
280.267	1462.22
303.865	1544.94
327.359	1610.67
350.751	1696.67
374.04	1798.76
397.228	2078.76
420.315	2134.22
443.302	2077.58
466.189	1755.12
488.978	1560.67
511.668	1293.67
534.261	1012.94
556.756	861.58
579.155	813.85
601.459	790.49
623.667	829.85
645.781	823.12
667.8	783.94
689.726	665.4
711.56	639.31
733.301	659.49
754.951	680.12
776.509	703.67
797.977	702.31
819.355	689.76
840.644	641.22
861.844	585.76
882.955	538.22
903.979	516.49
924.916	507.76
945.766	501.49
966.529	487.85
987.208	475.85
1007.801	478.85
1028.309	493.76
1048.734	502.49
1069.075	501.76
1089.333	488.49
1109.509	468.67
1129.602	451.49
1149.614	447.03
1169.545	451.58
1189.395	454.67
1209.165	453.67
1228.856	450.12
1248.467	435.22
1268	413.85
1287.455	404.03
1306.832	406.03
1326.132	403.22
1345.354	390.12
1364.501	377.94
1383.572	367.03
1402.567	355.58
1421.487	350.76
1440.333	353.94
1459.104	356.22
1477.802	349.85
1496.426	348.58
1514.978	348.12
1533.457	346.85
1551.864	347.03
1570.199	339.76
1588.464	320.03
1606.657	306.49
1624.78	296.4
1642.834	294.31
1660.817	295.49
1678.732	293.67
1696.577	284.4
1714.355	271.4
1732.064	254.76
1749.705	240.4
1767.28	228.49
1784.787	221.85
1802.228	213.94
1819.603	202.03
1836.913	194.31
1854.156	191.85
1871.335	192.67
1888.449	191.67
1905.499	189.67
1922.485	186.4
1939.408	181.67
1956.267	171.94
1973.063	161.76
1989.797	152.12
2006.469	148.03
2023.078	142.03
2039.627	135.49
2056.114	132.85
2072.54	132.58
2088.906	130.03
2105.211	123.31
2121.457	117.49
2137.643	112.12
2153.77	109.22
2169.838	102.85
2185.848	96.94
2201.799	91.03
2217.693	88.31
2233.529	86.4
2249.307	84.76
2265.029	79.31
2280.694	76.31
2296.302	74.4
2311.854	86.03
2327.351	101.22
2342.792	96.4
2358.178	67.22
2373.508	56.94
2388.785	54.76
2404.007	50.85
2419.174	47.22
2434.289	44.67
2449.349	43.31
2464.356	40.12
2479.311	37.94
2494.213	36.31
2509.062	36.22
2523.859	35.22
2538.605	32.49
2553.299	30.76
2567.941	27.22
2582.533	23.4
2597.073	21.58
2611.564	20.22
2626.004	19.22
2640.394	15.12
2654.734	12.12
2669.025	8.94
2683.266	5.67
2697.458	3.12
2711.602	1.76
2725.697	3.03
2739.744	2.58
2753.743	1.22
2767.695	-3.33
2781.598	-5.42
2795.455	-6.97
2809.264	-5.97
2823.026	-6.6
2836.742	-7.15
2850.412	-8.51
2864.035	-9.51
2877.613	-12.42
2891.145	-16.6
2904.631	-21.24
2918.073	-23.15
2931.469	-22.69
2944.821	-22.06
2958.128	-22.24
2971.39	-22.78
2984.609	-24.78
2997.784	-27.6
3010.915	-31.06
3024.002	-33.33
3037.046	-35.69
3050.048	-33.97
3063.006	-33.06
3075.922	-33.42
3088.795	-34.42
3101.627	-36.33
3114.416	-38.78
3127.163	-40.97
3139.869	-42.06
3152.533	-42.24
3165.157	-42.6
3177.739	-43.24
3190.28	-43.24
3202.781	-42.88
3215.241	-44.6
3227.661	-45.88
3240.041	-48.51
3252.382	-48.97
3264.682	-50.24
3276.943	-49.06
3289.165	-47.69
3301.348	-48.69
3313.492	-48.42
3325.597	-50.24
3337.663	-50.15
3349.691	-50.97
3361.681	-53.06
3373.633	-54.6
3385.547	-53.78
3397.424	-52.42
3409.263	-52.24
3421.065	-51.97
3432.829	-51.15
3444.557	-51.69
3456.247	-52.15
3467.902	-52.69
3479.519	-53.51
3491.101	-55.15
3502.646	-55.06
3514.155	-55.78
3525.629	-55.33
3537.067	-55.88
3548.469	-56.42
3559.837	-55.97
3571.169	-57.42
3582.466	-56.78
3593.728	-58.24
3604.956	-57.6
3616.149	-57.06
3627.307	-57.51
3638.432	-58.6
3649.523	-60.15
3660.579	-59.69
3671.602	-61.15
3682.591	-60.51
3693.547	-59.15
3704.47	-59.51
3715.359	-58.97
3726.216	-59.6
3737.039	-57.6
3747.83	-57.97
3758.589	-56.78
3769.315	-58.51
3780.008	-62.33
3790.67	-62.97
3801.299	-60.51
3811.897	-58.69
3822.463	-60.15
3832.998	-61.06
3843.501	-59.97
3853.973	-58.51
3864.414	-49.33
3874.823	-12.06
3885.202	-2.42
3895.55	-17.78
3905.868	-54.24
3916.155	-60.88
3926.411	-61.88
3936.638	-61.15
3946.834	-60.06
3957	-57.33
3967.137	-55.15
3977.244	-54.69
3987.321	-55.69
3997.369	-57.06
4007.388	-59.88
4017.377	-61.88
4027.338	-63.6
4037.269	-61.42
4047.172	-59.24
4057.046	-56.24
4066.891	-56.33
4076.708	-57.6
4086.497	-59.69
4096.257	-39.06
4105.989	-1.24
4115.694	-3.15
4125.37	-34.88
4135.019	-63.54
4142.237	-62.54