File: Data/Raman/2017-08-24 - Glass, alluminum 108/Aluminum II [full set]/Alu-EC108 30s,I=1, BC=3, 1sta _RamanShift_1.txt
Data from Alu-EC108 30s,I=1, BC=3, 1sta _RamanShift_1.txt Node

Date: Thu Aug 24 13:37:21 IDT 2017
User: aro
Spectrometer: QEPB0276
Trigger mode: 0
Integration Time (sec): 3.000000E1
Scans to average: 1
Electric dark correction enabled: true
Nonlinearity correction enabled: false
Boxcar width: 5
XAxis mode: Raman Shifts
Number of Pixels in Spectrum: 1044
>>>>>Begin Spectral Data<<<<<
160.701	252.79
184.826	845.83
208.845	1505.26
232.758	2061.35
256.565	2221.62
280.267	2348.62
303.865	2452.72
327.359	2533.26
350.751	2618.72
374.04	2713.99
397.228	2991.26
420.315	3040.9
443.302	2971.72
466.189	2636.62
488.978	2428.81
511.668	2139.9
534.261	1836.81
556.756	1672.35
579.155	1614.17
601.459	1578.44
623.667	1597.9
645.781	1578.44
667.8	1527.44
689.726	1396.26
711.56	1355.08
733.301	1364.35
754.951	1374.81
776.509	1396.44
797.977	1381.17
819.355	1353.81
840.644	1300.81
861.844	1240.81
882.955	1186.72
903.979	1144.99
924.916	1126.81
945.766	1110.44
966.529	1088.99
987.208	1064.9
1007.801	1068.62
1028.309	1076.35
1048.734	1069.53
1069.075	1055.9
1089.333	1041.26
1109.509	1009.99
1129.602	976.53
1149.614	956.81
1169.545	952.99
1189.395	944.44
1209.165	938.44
1228.856	930.81
1248.467	907.44
1268	867.44
1287.455	844.08
1306.832	845.26
1326.132	834.81
1345.354	802.44
1364.501	762.26
1383.572	726.26
1402.567	702.17
1421.487	696.17
1440.333	704.9
1459.104	708.08
1477.802	701.26
1496.426	691.53
1514.978	678.35
1533.457	657.62
1551.864	640.81
1570.199	624.81
1588.464	598.17
1606.657	577.62
1624.78	564.17
1642.834	564.81
1660.817	569.99
1678.732	565.99
1696.577	541.17
1714.355	512.26
1732.064	482.53
1749.705	458.26
1767.28	439.17
1784.787	425.53
1802.228	411.26
1819.603	388.99
1836.913	376.44
1854.156	374.44
1871.335	378.62
1888.449	379.17
1905.499	375.72
1922.485	374.9
1939.408	363.62
1956.267	340.44
1973.063	311.53
1989.797	291.62
2006.469	281.99
2023.078	272.81
2039.627	262.99
2056.114	262.08
2072.54	266.62
2088.906	264.17
2105.211	250.17
2121.457	236.62
2137.643	223.99
2153.77	212.72
2169.838	201.53
2185.848	190.81
2201.799	185.17
2217.693	183.08
2233.529	179.9
2249.307	171.35
2265.029	160.99
2280.694	153.17
2296.302	146.26
2311.854	153.26
2327.351	166.35
2342.792	160.26
2358.178	130.53
2373.508	120.08
2388.785	117.35
2404.007	114.17
2419.174	108.81
2434.289	105.9
2449.349	102.35
2464.356	96.99
2479.311	91.26
2494.213	89.35
2509.062	90.17
2523.859	87.26
2538.605	81.99
2553.299	78.44
2567.941	74.08
2582.533	68.44
2597.073	62.17
2611.564	57.62
2626.004	54.53
2640.394	48.9
2654.734	43.44
2669.025	38.81
2683.266	33.72
2697.458	28.62
2711.602	24.99
2725.697	25.53
2739.744	26.35
2753.743	23.53
2767.695	15.08
2781.598	10.53
2795.455	8.99
2809.264	9.17
2823.026	7.35
2836.742	6.35
2850.412	5.9
2864.035	5.17
2877.613	1.99
2891.145	-4.01
2904.631	-9.1
2918.073	-12.74
2931.469	-13.47
2944.821	-16.92
2958.128	-17.56
2971.39	-19.65
2984.609	-19.83
2997.784	-22.01
3010.915	-25.56
3024.002	-29.1
3037.046	-33.1
3050.048	-35.01
3063.006	-36.28
3075.922	-36.1
3088.795	-36.74
3101.627	-38.19
3114.416	-39.19
3127.163	-40.92
3139.869	-43.47
3152.533	-44.65
3165.157	-45.92
3177.739	-47.1
3190.28	-49.01
3202.781	-49.01
3215.241	-50.28
3227.661	-50.38
3240.041	-52.1
3252.382	-53.28
3264.682	-55.47
3276.943	-55.19
3289.165	-54.74
3301.348	-55.56
3313.492	-55.83
3325.597	-57.1
3337.663	-56.74
3349.691	-58.65
3361.681	-60.65
3373.633	-62.38
3385.547	-61.19
3397.424	-60.47
3409.263	-61.56
3421.065	-62.38
3432.829	-62.65
3444.557	-62.83
3456.247	-62.83
3467.902	-62.19
3479.519	-62.38
3491.101	-63.83
3502.646	-63.01
3514.155	-64.19
3525.629	-64.01
3537.067	-64.38
3548.469	-64.74
3559.837	-64.83
3571.169	-65.74
3582.466	-65.01
3593.728	-65.83
3604.956	-66.1
3616.149	-65.74
3627.307	-67.01
3638.432	-67.65
3649.523	-68.74
3660.579	-68.92
3671.602	-70.47
3682.591	-69.83
3693.547	-67.65
3704.47	-66.83
3715.359	-67.19
3726.216	-69.38
3737.039	-70.01
3747.83	-68.92
3758.589	-68.56
3769.315	-69.38
3780.008	-73.19
3790.67	-73.19
3801.299	-70.19
3811.897	-66.83
3822.463	-67.83
3832.998	-69.38
3843.501	-69.19
3853.973	-69.47
3864.414	-61.19
3874.823	-26.19
3885.202	-16.19
3895.55	-29.01
3905.868	-61.74
3916.155	-67.83
3926.411	-69.28
3936.638	-70.28
3946.834	-70.74
3957	-69.01
3967.137	-67.65
3977.244	-66.65
3987.321	-66.01
3997.369	-64.74
4007.388	-67.56
4017.377	-69.56
4027.338	-71.1
4037.269	-70.19
4047.172	-68.47
4057.046	-67.74
4066.891	-67.92
4076.708	-67.65
4086.497	-68.38
4096.257	-52.47
4105.989	-19.92
4115.694	-20.47
4125.37	-46.1
4135.019	-71.93
4142.237	-71.04