File: Data/Raman/2017-08-24 - Glass, alluminum 108/Aluminum II [full set]/Alu-BS-1-2 30s,I=1, BC=3, 1sta _RamanShift_2.txt
Data from Alu-BS-1-2 30s,I=1, BC=3, 1sta _RamanShift_2.txt Node

Date: Thu Aug 24 13:46:21 IDT 2017
User: aro
Spectrometer: QEPB0276
Trigger mode: 0
Integration Time (sec): 3.000000E1
Scans to average: 1
Electric dark correction enabled: true
Nonlinearity correction enabled: false
Boxcar width: 5
XAxis mode: Raman Shifts
Number of Pixels in Spectrum: 1044
>>>>>Begin Spectral Data<<<<<
160.701	180.75
184.826	531.35
208.845	912.89
232.758	1232.89
256.565	1332.52
280.267	1431.61
303.865	1519.7
327.359	1596.16
350.751	1696.98
374.04	1819.8
397.228	2136.8
420.315	2205.61
443.302	2136.25
466.189	1772.8
488.978	1556.07
511.668	1246.25
534.261	914.43
556.756	735.52
579.155	684.7
601.459	666.16
623.667	710.98
645.781	709.43
667.8	667.25
689.726	537.98
711.56	502.89
733.301	523.61
754.951	547.43
776.509	585.07
797.977	589.07
819.355	574.98
840.644	520.61
861.844	459.34
882.955	412.16
903.979	387.52
924.916	376.52
945.766	370.43
966.529	361.07
987.208	353.61
1007.801	355.34
1028.309	371.52
1048.734	385.8
1069.075	387.98
1089.333	373.98
1109.509	352.89
1129.602	335.07
1149.614	330.34
1169.545	333.8
1189.395	336.43
1209.165	334.8
1228.856	332.25
1248.467	316.16
1268	297.34
1287.455	290.25
1306.832	295.43
1326.132	297.52
1345.354	289.43
1364.501	279.07
1383.572	266.43
1402.567	253.52
1421.487	247.89
1440.333	252.61
1459.104	259.89
1477.802	264.7
1496.426	268.61
1514.978	270.07
1533.457	269.52
1551.864	267.52
1570.199	257.7
1588.464	235.8
1606.657	225.25
1624.78	220.61
1642.834	222.52
1660.817	226.61
1678.732	230.34
1696.577	225.8
1714.355	215.25
1732.064	197.07
1749.705	180.52
1767.28	172.8
1784.787	172.25
1802.228	169.61
1819.603	157.7
1836.913	146.16
1854.156	139.52
1871.335	138.61
1888.449	139.98
1905.499	142.98
1922.485	147.61
1939.408	144.7
1956.267	135.25
1973.063	122.16
1989.797	111.89
2006.469	107.25
2023.078	100.8
2039.627	94.7
2056.114	94.98
2072.54	99.43
2088.906	100.98
2105.211	95.34
2121.457	89.61
2137.643	81.98
2153.77	73.98
2169.838	66.43
2185.848	60.7
2201.799	57.07
2217.693	58.16
2233.529	57.07
2249.307	54.89
2265.029	50.61
2280.694	47.43
2296.302	43.89
2311.854	55.07
2327.351	72.7
2342.792	67.34
2358.178	35.89
2373.508	25.43
2388.785	23.8
2404.007	20.43
2419.174	17.16
2434.289	13.43
2449.349	11.43
2464.356	9.25
2479.311	8.7
2494.213	7.7
2509.062	6.52
2523.859	6.16
2538.605	4.16
2553.299	4.98
2567.941	3.43
2582.533	2.52
2597.073	-0.39
2611.564	-2.66
2626.004	-6.75
2640.394	-12.2
2654.734	-14.93
2669.025	-15.57
2683.266	-15.93
2697.458	-17.66
2711.602	-18.3
2725.697	-17.66
2739.744	-17.3
2753.743	-19.66
2767.695	-22.84
2781.598	-24.93
2795.455	-26.11
2809.264	-26.48
2823.026	-26.39
2836.742	-25.75
2850.412	-27.39
2864.035	-27.48
2877.613	-28.93
2891.145	-33.02
2904.631	-38.57
2918.073	-41.84
2931.469	-41.84
2944.821	-40.93
2958.128	-38.93
2971.39	-39.02
2984.609	-40.2
2997.784	-41.84
3010.915	-43.93
3024.002	-47.66
3037.046	-50.84
3050.048	-51.11
3063.006	-49.93
3075.922	-48.2
3088.795	-47.84
3101.627	-51.2
3114.416	-51.2
3127.163	-52.93
3139.869	-54.3
3152.533	-56.2
3165.157	-56.84
3177.739	-56.57
3190.28	-55.2
3202.781	-53.75
3215.241	-55.84
3227.661	-57.11
3240.041	-61.39
3252.382	-62.39
3264.682	-63.39
3276.943	-62.48
3289.165	-60.3
3301.348	-60.11
3313.492	-60.11
3325.597	-60.84
3337.663	-61.93
3349.691	-63.84
3361.681	-66.11
3373.633	-66.84
3385.547	-66.11
3397.424	-64.66
3409.263	-64.02
3421.065	-63.93
3432.829	-62.93
3444.557	-63.93
3456.247	-64.48
3467.902	-65.48
3479.519	-66.66
3491.101	-66.39
3502.646	-65.48
3514.155	-65.3
3525.629	-66.02
3537.067	-65.57
3548.469	-68.02
3559.837	-68.3
3571.169	-68.57
3582.466	-67.48
3593.728	-67.2
3604.956	-67.2
3616.149	-66.57
3627.307	-68.48
3638.432	-69.3
3649.523	-70.84
3660.579	-71.84
3671.602	-71.2
3682.591	-70.75
3693.547	-68.3
3704.47	-68.66
3715.359	-69.84
3726.216	-71.57
3737.039	-72.2
3747.83	-72.93
3758.589	-73.3
3769.315	-73.57
3780.008	-75.3
3790.67	-74.84
3801.299	-72.3
3811.897	-69.75
3822.463	-70.3
3832.998	-72.02
3843.501	-71.2
3853.973	-69.84
3864.414	-55.66
3874.823	3.98
3885.202	18.61
3895.55	-2.75
3905.868	-59.84
3916.155	-69.48
3926.411	-70.66
3936.638	-72.2
3946.834	-71.3
3957	-70.57
3967.137	-69.57
3977.244	-71.48
3987.321	-70.3
3997.369	-70.02
4007.388	-71.2
4017.377	-71.84
4027.338	-72.75
4037.269	-71.3
4047.172	-70.48
4057.046	-69.66
4066.891	-69.93
4076.708	-71.66
4086.497	-72.84
4096.257	-47.11
4105.989	-1.48
4115.694	-3.11
4125.37	-40.11
4135.019	-74.19
4142.237	-72.25