File: Data/Raman/2017-08-24 - Glass, alluminum 108/Aluminum II [full set]/Alu-EC107 30s,I=1, BC=3, 1sta _RamanShift_2.txt
Data from Alu-EC107 30s,I=1, BC=3, 1sta _RamanShift_2.txt Node

Date: Thu Aug 24 13:35:21 IDT 2017
User: aro
Spectrometer: QEPB0276
Trigger mode: 0
Integration Time (sec): 3.000000E1
Scans to average: 1
Electric dark correction enabled: true
Nonlinearity correction enabled: false
Boxcar width: 5
XAxis mode: Raman Shifts
Number of Pixels in Spectrum: 1044
>>>>>Begin Spectral Data<<<<<
160.701	185.88
184.826	561.77
208.845	973.6
232.758	1317.69
256.565	1421.51
280.267	1522.42
303.865	1611.6
327.359	1683.97
350.751	1778.15
374.04	1893.33
397.228	2201.51
420.315	2259.06
443.302	2190.24
466.189	1834.51
488.978	1631.42
511.668	1339.78
534.261	1036.06
556.756	868.97
579.155	821.15
601.459	796.69
623.667	838.6
645.781	833.88
667.8	790.69
689.726	664.51
711.56	632.24
733.301	652.69
754.951	673.88
776.509	707.51
797.977	707.6
819.355	692.15
840.644	639.15
861.844	583.42
882.955	536.88
903.979	510.88
924.916	498.69
945.766	492.78
966.529	481.15
987.208	471.42
1007.801	476.15
1028.309	489.15
1048.734	499.24
1069.075	499.06
1089.333	485.06
1109.509	464.6
1129.602	444.97
1149.614	441.15
1169.545	441.42
1189.395	441.33
1209.165	439.33
1228.856	440.33
1248.467	424.33
1268	405.42
1287.455	392.51
1306.832	395.15
1326.132	392.24
1345.354	380.78
1364.501	368.06
1383.572	353.24
1402.567	339.51
1421.487	333.6
1440.333	340.06
1459.104	344.6
1477.802	343.33
1496.426	343.69
1514.978	342.78
1533.457	340.6
1551.864	336.88
1570.199	328.88
1588.464	308.6
1606.657	295.97
1624.78	287.06
1642.834	286.15
1660.817	290.42
1678.732	291.78
1696.577	284.33
1714.355	273.78
1732.064	255.51
1749.705	238.6
1767.28	228.33
1784.787	223.69
1802.228	217.42
1819.603	202.78
1836.913	190.78
1854.156	186.15
1871.335	186.51
1888.449	189.6
1905.499	189.88
1922.485	192.69
1939.408	188.42
1956.267	177.15
1973.063	162.6
1989.797	149.69
2006.469	144.6
2023.078	137.97
2039.627	133.51
2056.114	135.51
2072.54	139.6
2088.906	139.33
2105.211	130.78
2121.457	121.69
2137.643	114.24
2153.77	107.97
2169.838	100.42
2185.848	93.42
2201.799	89.88
2217.693	88.42
2233.529	87.78
2249.307	84.6
2265.029	80.69
2280.694	77.69
2296.302	73.33
2311.854	84.06
2327.351	101.15
2342.792	97.15
2358.178	66.6
2373.508	56.06
2388.785	53.24
2404.007	49.06
2419.174	44.6
2434.289	42.42
2449.349	40.97
2464.356	38.69
2479.311	36.42
2494.213	35.33
2509.062	33.78
2523.859	31.15
2538.605	28.33
2553.299	27.42
2567.941	25.78
2582.533	23.78
2597.073	21.88
2611.564	20.6
2626.004	17.97
2640.394	13.88
2654.734	9.06
2669.025	5.42
2683.266	2.78
2697.458	0.6
2711.602	0.42
2725.697	2.24
2739.744	2.97
2753.743	1.6
2767.695	-2.94
2781.598	-6.03
2795.455	-8.67
2809.264	-9.58
2823.026	-9.76
2836.742	-10.58
2850.412	-10.4
2864.035	-10.03
2877.613	-11.4
2891.145	-16.03
2904.631	-21.12
2918.073	-24.4
2931.469	-25.58
2944.821	-26.94
2958.128	-26.49
2971.39	-26.67
2984.609	-25.85
2997.784	-27.58
3010.915	-29.76
3024.002	-33.03
3037.046	-35.85
3050.048	-35.58
3063.006	-35.49
3075.922	-36.22
3088.795	-38.12
3101.627	-40.22
3114.416	-40.76
3127.163	-41.49
3139.869	-41.67
3152.533	-42.94
3165.157	-42.76
3177.739	-44.22
3190.28	-45.03
3202.781	-45.85
3215.241	-46.4
3227.661	-48.4
3240.041	-49.22
3252.382	-49.76
3264.682	-49.76
3276.943	-49.22
3289.165	-48.94
3301.348	-49.58
3313.492	-50.31
3325.597	-51.94
3337.663	-53.31
3349.691	-53.67
3361.681	-54.85
3373.633	-55.49
3385.547	-54.49
3397.424	-54.22
3409.263	-54.67
3421.065	-54.85
3432.829	-53.85
3444.557	-53.49
3456.247	-54.03
3467.902	-54.76
3479.519	-56.58
3491.101	-58.03
3502.646	-57.94
3514.155	-57.58
3525.629	-56.76
3537.067	-57.03
3548.469	-58.22
3559.837	-59.31
3571.169	-59.76
3582.466	-59.58
3593.728	-59.67
3604.956	-59.94
3616.149	-59.67
3627.307	-60.67
3638.432	-60.03
3649.523	-61.58
3660.579	-62.03
3671.602	-63.4
3682.591	-62.22
3693.547	-60.31
3704.47	-59.58
3715.359	-60.76
3726.216	-63.03
3737.039	-64.12
3747.83	-64.03
3758.589	-64.03
3769.315	-64.49
3780.008	-67.12
3790.67	-66.58
3801.299	-62.67
3811.897	-60.49
3822.463	-61.03
3832.998	-63.85
3843.501	-64.76
3853.973	-63.85
3864.414	-53.31
3874.823	-11.31
3885.202	-0.31
3895.55	-14.85
3905.868	-54.22
3916.155	-61.49
3926.411	-64.22
3936.638	-65.22
3946.834	-64.22
3957	-61.58
3967.137	-60.22
3977.244	-60.49
3987.321	-60.31
3997.369	-59.49
4007.388	-60.58
4017.377	-62.67
4027.338	-63.49
4037.269	-63.85
4047.172	-62.58
4057.046	-61.03
4066.891	-60.12
4076.708	-60.85
4086.497	-62.4
4096.257	-42.22
4105.989	-5.03
4115.694	-5.49
4125.37	-36.49
4135.019	-64.79
4142.237	-64.29