File: Data/Raman/2017-08-24 - Glass, alluminum 108/Aluminum II [full set]/Alu-EC-control 30s,I=1, BC=3, 1sta _RamanShift_3.txt
Data from Alu-control 30s,I=1, BC=3, 1sta _RamanShift_3.txt Node

Date: Thu Aug 24 13:31:21 IDT 2017
User: aro
Spectrometer: QEPB0276
Trigger mode: 0
Integration Time (sec): 3.000000E1
Scans to average: 1
Electric dark correction enabled: true
Nonlinearity correction enabled: false
Boxcar width: 5
XAxis mode: Raman Shifts
Number of Pixels in Spectrum: 1044
>>>>>Begin Spectral Data<<<<<
160.701	171.75
184.826	504.65
208.845	865.57
232.758	1162.3
256.565	1255.75
280.267	1349.75
303.865	1441.11
327.359	1515.66
350.751	1611.84
374.04	1730.48
397.228	2046.57
420.315	2110.75
443.302	2041.02
466.189	1682.11
488.978	1468.48
511.668	1172.39
534.261	854.93
556.756	683.75
579.155	634.93
601.459	609.66
623.667	656.02
645.781	655.02
667.8	613.3
689.726	483.75
711.56	451.02
733.301	473.75
754.951	498.02
776.509	535.02
797.977	540.3
819.355	529.3
840.644	475.11
861.844	414.84
882.955	365.93
903.979	343.48
924.916	334.84
945.766	330.48
966.529	324.11
987.208	319.66
1007.801	322.84
1028.309	336.84
1048.734	347.3
1069.075	349.75
1089.333	337.93
1109.509	318.66
1129.602	302.2
1149.614	300.93
1169.545	308.02
1189.395	311.02
1209.165	307.2
1228.856	304.11
1248.467	290.75
1268	275.39
1287.455	265.39
1306.832	267.11
1326.132	266.39
1345.354	261.3
1364.501	252.84
1383.572	244.11
1402.567	233.75
1421.487	229.39
1440.333	233.93
1459.104	238.93
1477.802	241.48
1496.426	245.66
1514.978	246.57
1533.457	247.84
1551.864	249.2
1570.199	239.93
1588.464	218.75
1606.657	207.3
1624.78	201.84
1642.834	201.11
1660.817	205.66
1678.732	211.11
1696.577	207.84
1714.355	197.11
1732.064	180.02
1749.705	167.84
1767.28	163.75
1784.787	160.93
1802.228	155.93
1819.603	141.93
1836.913	131.75
1854.156	128.75
1871.335	128.11
1888.449	132.11
1905.499	134.84
1922.485	138.02
1939.408	135.84
1956.267	126.3
1973.063	113.84
1989.797	104.48
2006.469	99.11
2023.078	94.39
2039.627	90.3
2056.114	90.84
2072.54	95.2
2088.906	97.75
2105.211	93.2
2121.457	87.66
2137.643	81.39
2153.77	74.11
2169.838	65.93
2185.848	59.66
2201.799	56.2
2217.693	56.11
2233.529	56.48
2249.307	55.3
2265.029	51.11
2280.694	48.2
2296.302	43.66
2311.854	56.75
2327.351	74.11
2342.792	69.48
2358.178	37.75
2373.508	28.2
2388.785	26.3
2404.007	24.02
2419.174	19.84
2434.289	18.39
2449.349	16.66
2464.356	14.3
2479.311	11.48
2494.213	11.2
2509.062	12.75
2523.859	12.84
2538.605	10.57
2553.299	10.93
2567.941	9.11
2582.533	6.3
2597.073	2.84
2611.564	0.93
2626.004	-0.61
2640.394	-3.61
2654.734	-6.34
2669.025	-7.16
2683.266	-8.25
2697.458	-10.43
2711.602	-12.43
2725.697	-12.07
2739.744	-10.34
2753.743	-10.43
2767.695	-11.98
2781.598	-14.8
2795.455	-16.98
2809.264	-17.61
2823.026	-16.61
2836.742	-17.52
2850.412	-19.25
2864.035	-19.89
2877.613	-19.98
2891.145	-21.89
2904.631	-26.07
2918.073	-28.7
2931.469	-30.16
2944.821	-30.16
2958.128	-30.07
2971.39	-30.89
2984.609	-31.8
2997.784	-33.89
3010.915	-36.16
3024.002	-37.98
3037.046	-39.16
3050.048	-38.25
3063.006	-38.52
3075.922	-37.98
3088.795	-38.07
3101.627	-39.98
3114.416	-41.7
3127.163	-44.34
3139.869	-45.07
3152.533	-46.43
3165.157	-46.25
3177.739	-45.16
3190.28	-44.16
3202.781	-44.07
3215.241	-45.07
3227.661	-45.7
3240.041	-49.16
3252.382	-50.61
3264.682	-52.25
3276.943	-51.98
3289.165	-51.43
3301.348	-51.43
3313.492	-49.61
3325.597	-48.34
3337.663	-49.34
3349.691	-49.7
3361.681	-51.43
3373.633	-53.43
3385.547	-53.98
3397.424	-54.98
3409.263	-55.34
3421.065	-55.34
3432.829	-53.52
3444.557	-51.8
3456.247	-51.7
3467.902	-51.52
3479.519	-53.61
3491.101	-55.43
3502.646	-56.98
3514.155	-57.7
3525.629	-57.07
3537.067	-55.34
3548.469	-53.8
3559.837	-52.98
3571.169	-54.16
3582.466	-53.89
3593.728	-55.61
3604.956	-56.98
3616.149	-58.61
3627.307	-59.34
3638.432	-59.07
3649.523	-58.8
3660.579	-59.07
3671.602	-59.98
3682.591	-59.07
3693.547	-57.89
3704.47	-58.61
3715.359	-59.89
3726.216	-61.89
3737.039	-61.8
3747.83	-59.89
3758.589	-58.34
3769.315	-57.98
3780.008	-60.98
3790.67	-61.8
3801.299	-60.61
3811.897	-58.89
3822.463	-59.43
3832.998	-59.98
3843.501	-59.52
3853.973	-58.61
3864.414	-47.8
3874.823	-4.16
3885.202	6.66
3895.55	-10.52
3905.868	-52.89
3916.155	-60.52
3926.411	-61.8
3936.638	-60.16
3946.834	-59.25
3957	-56.52
3967.137	-55.16
3977.244	-56.52
3987.321	-57.16
3997.369	-58.43
4007.388	-60.89
4017.377	-61.52
4027.338	-60.7
4037.269	-58.89
4047.172	-56.52
4057.046	-55.43
4066.891	-55.7
4076.708	-56.7
4086.497	-59.25
4096.257	-39.7
4105.989	-3.25
4115.694	-4.61
4125.37	-35.61
4135.019	-63.36
4142.237	-62.08