File: Data/Raman/2017-08-24 - Glass, alluminum 108/Aluminum II [full set]/Alu-BS-control 30s,I=1, BC=3, 1sta _RamanShift_2.txt
Data from Alu-BS-control 30s,I=1, BC=3, 1sta _RamanShift_2.txt Node

Date: Thu Aug 24 13:43:21 IDT 2017
User: aro
Spectrometer: QEPB0276
Trigger mode: 0
Integration Time (sec): 3.000000E1
Scans to average: 1
Electric dark correction enabled: true
Nonlinearity correction enabled: false
Boxcar width: 5
XAxis mode: Raman Shifts
Number of Pixels in Spectrum: 1044
>>>>>Begin Spectral Data<<<<<
160.701	180.96
184.826	522.52
208.845	898.17
232.758	1215.72
256.565	1314.81
280.267	1411.17
303.865	1498.72
327.359	1574.35
350.751	1670.81
374.04	1782.26
397.228	2083.72
420.315	2141.26
443.302	2074.44
466.189	1726.53
488.978	1521.9
511.668	1233.26
534.261	924.53
556.756	756.81
579.155	705.9
601.459	681.9
623.667	725.44
645.781	722.72
667.8	679.53
689.726	555.81
711.56	525.62
733.301	547.44
754.951	567.53
776.509	599.35
797.977	600.26
819.355	588.62
840.644	535.81
861.844	478.62
882.955	433.17
903.979	410.44
924.916	400.72
945.766	393.9
966.529	384.35
987.208	377.17
1007.801	382.9
1028.309	395.72
1048.734	405.44
1069.075	403.53
1089.333	393.81
1109.509	375.53
1129.602	360.44
1149.614	355.08
1169.545	360.08
1189.395	362.35
1209.165	363.08
1228.856	362.35
1248.467	349.35
1268	329.17
1287.455	318.17
1306.832	321.9
1326.132	322.08
1345.354	313.35
1364.501	301.53
1383.572	290.44
1402.567	278.72
1421.487	274.62
1440.333	278.9
1459.104	285.08
1477.802	283.99
1496.426	287.17
1514.978	284.17
1533.457	284.9
1551.864	283.53
1570.199	272.62
1588.464	252.72
1606.657	243.44
1624.78	238.53
1642.834	237.63
1660.817	240.26
1678.732	237.99
1696.577	230.35
1714.355	216.81
1732.064	202.44
1749.705	188.44
1767.28	178.53
1784.787	174.81
1802.228	170.81
1819.603	159.62
1836.913	149.35
1854.156	143.72
1871.335	141.9
1888.449	142.62
1905.499	143.26
1922.485	144.72
1939.408	141.17
1956.267	130.62
1973.063	118.9
1989.797	109.35
2006.469	106.17
2023.078	99.44
2039.627	95.44
2056.114	95.72
2072.54	99.9
2088.906	100.26
2105.211	93.62
2121.457	87.08
2137.643	81.53
2153.77	76.81
2169.838	70.26
2185.848	63.35
2201.799	58.44
2217.693	56.35
2233.529	55.72
2249.307	54.53
2265.029	50.9
2280.694	47.81
2296.302	45.35
2311.854	57.08
2327.351	74.35
2342.792	69.35
2358.178	38.81
2373.508	26.81
2388.785	27.26
2404.007	25.53
2419.174	24.62
2434.289	21.17
2449.349	18.62
2464.356	16.08
2479.311	14.08
2494.213	10.99
2509.062	9.81
2523.859	8.99
2538.605	7.26
2553.299	7.44
2567.941	7.08
2582.533	5.17
2597.073	2.63
2611.564	-0.28
2626.004	-3.56
2640.394	-7.38
2654.734	-10.19
2669.025	-13.01
2683.266	-14.1
2697.458	-15.28
2711.602	-14.92
2725.697	-14.47
2739.744	-13.19
2753.743	-15.83
2767.695	-20.92
2781.598	-23.47
2795.455	-25.28
2809.264	-25.01
2823.026	-23.1
2836.742	-22.38
2850.412	-22.56
2864.035	-23.38
2877.613	-27.1
2891.145	-32.19
2904.631	-36.83
2918.073	-38.01
2931.469	-38.47
2944.821	-39.83
2958.128	-38.56
2971.39	-39.28
2984.609	-39.65
2997.784	-42.19
3010.915	-44.74
3024.002	-46.92
3037.046	-48.56
3050.048	-48.01
3063.006	-47.47
3075.922	-46.65
3088.795	-47.38
3101.627	-50.56
3114.416	-52.47
3127.163	-53.56
3139.869	-53.1
3152.533	-52.56
3165.157	-53.1
3177.739	-53.83
3190.28	-55.28
3202.781	-55.28
3215.241	-56.56
3227.661	-57.65
3240.041	-59.38
3252.382	-59.19
3264.682	-60.83
3276.943	-60.47
3289.165	-59.83
3301.348	-60.74
3313.492	-61.19
3325.597	-62.19
3337.663	-61.83
3349.691	-62.83
3361.681	-63.47
3373.633	-63.01
3385.547	-63.19
3397.424	-63.92
3409.263	-65.1
3421.065	-65.65
3432.829	-64.92
3444.557	-63.74
3456.247	-63.19
3467.902	-62.1
3479.519	-63.38
3491.101	-63.74
3502.646	-64.83
3514.155	-66.74
3525.629	-66.83
3537.067	-67.56
3548.469	-68.47
3559.837	-68.74
3571.169	-69.1
3582.466	-67.38
3593.728	-68.56
3604.956	-68.38
3616.149	-68.01
3627.307	-69.38
3638.432	-68.92
3649.523	-70.28
3660.579	-71.1
3671.602	-71.47
3682.591	-70.47
3693.547	-67.92
3704.47	-67.28
3715.359	-68.92
3726.216	-70.83
3737.039	-71.47
3747.83	-71.19
3758.589	-71.01
3769.315	-72.38
3780.008	-76.28
3790.67	-76.1
3801.299	-72.56
3811.897	-68.38
3822.463	-68.83
3832.998	-70.65
3843.501	-70.74
3853.973	-70.38
3864.414	-57.83
3874.823	-1.01
3885.202	12.08
3895.55	-8.19
3905.868	-61.38
3916.155	-68.38
3926.411	-69.83
3936.638	-70.19
3946.834	-70.1
3957	-69.28
3967.137	-69.56
3977.244	-69.92
3987.321	-69.65
3997.369	-68.19
4007.388	-69.74
4017.377	-70.19
4027.338	-71.83
4037.269	-71.19
4047.172	-70.38
4057.046	-69.74
4066.891	-70.38
4076.708	-71.19
4086.497	-71.1
4096.257	-43.19
4105.989	2.81
4115.694	1.99
4125.37	-37.74
4135.019	-72.04
4142.237	-71.71