File: Data/Raman/2017-08-24 - Glass, alluminum 108/Aluminum II [full set]/Alu-BS-BLANK 30s,I=1, BC=3, 1sta _RamanShift_2.txt
Data from Alu-BS-BLANK 30s,I=1, BC=3, 1sta _RamanShift_2.txt Node

Date: Thu Aug 24 13:40:51 IDT 2017
User: aro
Spectrometer: QEPB0276
Trigger mode: 0
Integration Time (sec): 3.000000E1
Scans to average: 1
Electric dark correction enabled: true
Nonlinearity correction enabled: false
Boxcar width: 5
XAxis mode: Raman Shifts
Number of Pixels in Spectrum: 1044
>>>>>Begin Spectral Data<<<<<
160.701	185.38
184.826	559.38
208.845	969.28
232.758	1305.28
256.565	1415.1
280.267	1518.74
303.865	1618.83
327.359	1705.83
350.751	1821.01
374.04	1953.28
397.228	2299.65
420.315	2367.56
443.302	2295.92
466.189	1900.83
488.978	1659.74
511.668	1320.83
534.261	962.28
556.756	771.47
579.155	715.56
601.459	694.38
623.667	739.83
645.781	732.65
667.8	685.47
689.726	548.01
711.56	514.1
733.301	542.01
754.951	573.19
776.509	617.01
797.977	623.28
819.355	609.83
840.644	546.74
861.844	477.92
882.955	424.28
903.979	399.65
924.916	390.83
945.766	386.28
966.529	377.1
987.208	374.19
1007.801	379.56
1028.309	398.01
1048.734	411.56
1069.075	413.1
1089.333	397.01
1109.509	374.01
1129.602	357.38
1149.614	355.56
1169.545	362.56
1189.395	368.65
1209.165	369.65
1228.856	368.83
1248.467	350.83
1268	326.65
1287.455	314.83
1306.832	319.01
1326.132	323.1
1345.354	317.56
1364.501	306.1
1383.572	295.1
1402.567	281.83
1421.487	274.92
1440.333	279.56
1459.104	286.56
1477.802	287.01
1496.426	288.1
1514.978	289.38
1533.457	288.1
1551.864	288.1
1570.199	278.1
1588.464	258.01
1606.657	248.38
1624.78	246.28
1642.834	247.19
1660.817	248.65
1678.732	250.19
1696.577	244.56
1714.355	234.19
1732.064	218.28
1749.705	203.01
1767.28	196.19
1784.787	192.65
1802.228	186.65
1819.603	172.74
1836.913	161.1
1854.156	157.47
1871.335	157.01
1888.449	160.56
1905.499	163.83
1922.485	168.38
1939.408	165.74
1956.267	154.83
1973.063	139.1
1989.797	127.83
2006.469	122.47
2023.078	118.74
2039.627	114.65
2056.114	115.92
2072.54	119.38
2088.906	121.1
2105.211	116.1
2121.457	108.1
2137.643	101.01
2153.77	92.92
2169.838	84.83
2185.848	80.19
2201.799	78.28
2217.693	78.19
2233.529	76.65
2249.307	72.74
2265.029	67.28
2280.694	64.83
2296.302	60.28
2311.854	73.65
2327.351	89.38
2342.792	86.1
2358.178	57.1
2373.508	46.38
2388.785	45.74
2404.007	41.1
2419.174	37.56
2434.289	32.56
2449.349	32.47
2464.356	32.1
2479.311	32.01
2494.213	30.74
2509.062	29.19
2523.859	26.56
2538.605	24.83
2553.299	22.74
2567.941	21.92
2582.533	19.65
2597.073	19.56
2611.564	16.65
2626.004	14.28
2640.394	8.83
2654.734	5.37
2669.025	1.38
2683.266	-0.72
2697.458	-2.08
2711.602	-1.72
2725.697	0.38
2739.744	1.47
2753.743	0.28
2767.695	-4.62
2781.598	-7.26
2795.455	-7.9
2809.264	-8.17
2823.026	-8.17
2836.742	-9.63
2850.412	-11.44
2864.035	-12.9
2877.613	-14.72
2891.145	-16.9
2904.631	-18.99
2918.073	-21.44
2931.469	-22.53
2944.821	-24.08
2958.128	-24.44
2971.39	-24.17
2984.609	-24.17
2997.784	-25.99
3010.915	-27.99
3024.002	-30.53
3037.046	-32.17
3050.048	-32.72
3063.006	-34.08
3075.922	-34.62
3088.795	-34.72
3101.627	-36.17
3114.416	-36.17
3127.163	-37.9
3139.869	-39.53
3152.533	-40.35
3165.157	-39.08
3177.739	-38.72
3190.28	-39.26
3202.781	-40.17
3215.241	-42.72
3227.661	-44.08
3240.041	-45.44
3252.382	-46.72
3264.682	-47.99
3276.943	-46.9
3289.165	-46.17
3301.348	-47.17
3313.492	-47.08
3325.597	-48.44
3337.663	-49.81
3349.691	-51.99
3361.681	-53.81
3373.633	-53.81
3385.547	-51.53
3397.424	-50.9
3409.263	-51.35
3421.065	-51.81
3432.829	-51.35
3444.557	-52.35
3456.247	-52.08
3467.902	-51.53
3479.519	-51.99
3491.101	-52.08
3502.646	-51.72
3514.155	-51.9
3525.629	-52.44
3537.067	-53.26
3548.469	-53.44
3559.837	-53.9
3571.169	-53.72
3582.466	-54.17
3593.728	-54.53
3604.956	-55.08
3616.149	-53.62
3627.307	-55.44
3638.432	-57.17
3649.523	-57.9
3660.579	-57.99
3671.602	-57.99
3682.591	-56.62
3693.547	-54.72
3704.47	-54.62
3715.359	-55.44
3726.216	-57.9
3737.039	-58.99
3747.83	-57.72
3758.589	-56.72
3769.315	-56.72
3780.008	-59.72
3790.67	-59.62
3801.299	-57.62
3811.897	-55.99
3822.463	-58.17
3832.998	-60.72
3843.501	-60.35
3853.973	-58.81
3864.414	-49.44
3874.823	-9.44
3885.202	0.74
3895.55	-12.26
3905.868	-41.62
3916.155	-48.9
3926.411	-51.72
3936.638	-60.35
3946.834	-59.26
3957	-56.62
3967.137	-54.44
3977.244	-54.62
3987.321	-53.53
3997.369	-53.9
4007.388	-55.44
4017.377	-57.53
4027.338	-57.9
4037.269	-57.9
4047.172	-56.53
4057.046	-56.9
4066.891	-56.53
4076.708	-56.72
4086.497	-57.62
4096.257	-38.81
4105.989	-5.35
4115.694	-4.9
4125.37	-33.17
4135.019	-60.4
4142.237	-60.29