File: Data/Raman/2017-08-24 - Glass, alluminum 108/Aluminum II [full set]/Alu-EC1-2 30s,I=1, BC=3, 1sta _RamanShift_1.txt
Data from Alu-EC1-2 30s,I=1, BC=3, 1sta _RamanShift_1.txt Node

Date: Thu Aug 24 13:32:51 IDT 2017
User: aro
Spectrometer: QEPB0276
Trigger mode: 0
Integration Time (sec): 3.000000E1
Scans to average: 1
Electric dark correction enabled: true
Nonlinearity correction enabled: false
Boxcar width: 5
XAxis mode: Raman Shifts
Number of Pixels in Spectrum: 1044
>>>>>Begin Spectral Data<<<<<
160.701	242.38
184.826	757.77
208.845	1320.65
232.758	1790.19
256.565	1920.92
280.267	2037.47
303.865	2133.19
327.359	2213.56
350.751	2309.19
374.04	2421.47
397.228	2737.56
420.315	2797.38
443.302	2714.38
466.189	2335.38
488.978	2103.47
511.668	1781.19
534.261	1434.56
556.756	1243.1
579.155	1184.47
601.459	1152.92
623.667	1187.65
645.781	1173.47
667.8	1125.38
689.726	986.92
711.56	949.19
733.301	961.01
754.951	977.19
776.509	1012.01
797.977	1012.19
819.355	993.83
840.644	936.1
861.844	869.92
882.955	814.83
903.979	782.1
924.916	769.38
945.766	760.01
966.529	741.28
987.208	728.38
1007.801	735.28
1028.309	751.83
1048.734	758.01
1069.075	750.83
1089.333	733.83
1109.509	707.38
1129.602	679.01
1149.614	669.38
1169.545	667.83
1189.395	664.74
1209.165	661.56
1228.856	658.19
1248.467	639.38
1268	608.28
1287.455	592.19
1306.832	594.1
1326.132	582.1
1345.354	546.19
1364.501	520.19
1383.572	500.38
1402.567	486.19
1421.487	483.65
1440.333	495.38
1459.104	494.37
1477.802	475.38
1496.426	448.38
1514.978	429.01
1533.457	423.47
1551.864	431.65
1570.199	432.83
1588.464	414.56
1606.657	401.01
1624.78	388.83
1642.834	386.1
1660.817	380.38
1678.732	362.65
1696.577	332.56
1714.355	306.38
1732.064	290.38
1749.705	282.1
1767.28	267.83
1784.787	249.1
1802.228	232.38
1819.603	223.19
1836.913	221.47
1854.156	220.28
1871.335	216.83
1888.449	213.38
1905.499	205.28
1922.485	193.92
1939.408	180.47
1956.267	169.56
1973.063	160.19
1989.797	155.28
2006.469	155.74
2023.078	149.74
2039.627	142.83
2056.114	139.56
2072.54	138.1
2088.906	134.38
2105.211	123.83
2121.457	116.38
2137.643	112.47
2153.77	107.47
2169.838	102.83
2185.848	98.01
2201.799	96.65
2217.693	96.01
2233.529	94.01
2249.307	88.19
2265.029	83.1
2280.694	78.74
2296.302	76.1
2311.854	87.65
2327.351	106.19
2342.792	101.92
2358.178	74.01
2373.508	65.47
2388.785	65.74
2404.007	62.1
2419.174	58.19
2434.289	55.56
2449.349	52.19
2464.356	47.83
2479.311	42.56
2494.213	39.56
2509.062	37.01
2523.859	33.65
2538.605	29.19
2553.299	25.92
2567.941	22.83
2582.533	19.56
2597.073	18.19
2611.564	15.1
2626.004	12.01
2640.394	5.92
2654.734	3.56
2669.025	2.19
2683.266	1.01
2697.458	-1.08
2711.602	-3.62
2725.697	-4.81
2739.744	-6.9
2753.743	-12.26
2767.695	-17.17
2781.598	-20.53
2795.455	-21.35
2809.264	-20.62
2823.026	-19.72
2836.742	-20.08
2850.412	-21.81
2864.035	-23.17
2877.613	-24.62
2891.145	-28.26
2904.631	-33.17
2918.073	-36.9
2931.469	-37.99
2944.821	-38.99
2958.128	-38.53
2971.39	-39.53
2984.609	-39.62
2997.784	-41.9
3010.915	-45.62
3024.002	-48.17
3037.046	-51.26
3050.048	-52.08
3063.006	-50.35
3075.922	-49.72
3088.795	-48.9
3101.627	-50.17
3114.416	-51.9
3127.163	-55.26
3139.869	-57.72
3152.533	-58.81
3165.157	-59.99
3177.739	-61.08
3190.28	-60.44
3202.781	-58.62
3215.241	-57.9
3227.661	-59.99
3240.041	-63.9
3252.382	-65.17
3264.682	-67.44
3276.943	-66.9
3289.165	-66.44
3301.348	-65.62
3313.492	-65.53
3325.597	-66.35
3337.663	-66.9
3349.691	-67.99
3361.681	-70.53
3373.633	-73.35
3385.547	-73.08
3397.424	-71.72
3409.263	-70.35
3421.065	-70.44
3432.829	-69.53
3444.557	-69.53
3456.247	-70.35
3467.902	-71.72
3479.519	-73.44
3491.101	-73.35
3502.646	-72.62
3514.155	-71.17
3525.629	-70.53
3537.067	-69.62
3548.469	-70.53
3559.837	-72.08
3571.169	-73.17
3582.466	-73.53
3593.728	-73.72
3604.956	-74.53
3616.149	-73.72
3627.307	-73.72
3638.432	-73.26
3649.523	-74.72
3660.579	-76.35
3671.602	-78.26
3682.591	-78.53
3693.547	-77.08
3704.47	-76.26
3715.359	-77.72
3726.216	-78.9
3737.039	-78.99
3747.83	-77.44
3758.589	-76.99
3769.315	-76.72
3780.008	-80.44
3790.67	-81.72
3801.299	-80.26
3811.897	-78.44
3822.463	-78.72
3832.998	-79.9
3843.501	-78.17
3853.973	-75.72
3864.414	-62.26
3874.823	-13.99
3885.202	-3.62
3895.55	-24.35
3905.868	-71.72
3916.155	-79.35
3926.411	-79.62
3936.638	-78.62
3946.834	-77.53
3957	-75.72
3967.137	-74.53
3977.244	-75.81
3987.321	-75.44
3997.369	-76.62
4007.388	-78.26
4017.377	-79.17
4027.338	-79.81
4037.269	-79.44
4047.172	-77.17
4057.046	-75.72
4066.891	-74.99
4076.708	-76.17
4086.497	-78.17
4096.257	-55.35
4105.989	-11.62
4115.694	-11.9
4125.37	-48.35
4135.019	-82.18
4142.237	-81.79