File: Data/Raman/2017-08-24 - Glass, alluminum 108/Aluminum II [full set]/Alu-EC-Blank 30s,I=1, BC=3, 1sta _RamanShift_3.txt
Data from Alu-Blank 30s,I=1, BC=3, 1sta _RamanShift_3.txt Node

Date: Thu Aug 24 13:29:21 IDT 2017
User: aro
Spectrometer: QEPB0276
Trigger mode: 0
Integration Time (sec): 3.000000E1
Scans to average: 1
Electric dark correction enabled: true
Nonlinearity correction enabled: false
Boxcar width: 5
XAxis mode: Raman Shifts
Number of Pixels in Spectrum: 1044
>>>>>Begin Spectral Data<<<<<
160.701	175.88
184.826	529.77
208.845	920.06
232.758	1246.78
256.565	1349.69
280.267	1444.51
303.865	1525.33
327.359	1593.88
350.751	1678.33
374.04	1785.69
397.228	2065.78
420.315	2122.88
443.302	2060.06
466.189	1736.24
488.978	1545.24
511.668	1288.51
534.261	1007.78
556.756	853.88
579.155	801.6
601.459	779.42
623.667	814.15
645.781	810.33
667.8	771.06
689.726	658.33
711.56	631.24
733.301	651.06
754.951	669.97
776.509	696.15
797.977	693.42
819.355	675.06
840.644	626.15
861.844	573.6
882.955	531.6
903.979	507.33
924.916	497.42
945.766	489.78
966.529	477.24
987.208	465.88
1007.801	471.6
1028.309	483.6
1048.734	492.24
1069.075	489.88
1089.333	479.51
1109.509	460.33
1129.602	442.88
1149.614	437.24
1169.545	440.97
1189.395	442.15
1209.165	442.78
1228.856	438.42
1248.467	422.88
1268	405.15
1287.455	397.06
1306.832	397.42
1326.132	394.24
1345.354	380.33
1364.501	366.6
1383.572	352.51
1402.567	340.33
1421.487	334.33
1440.333	341.6
1459.104	346.78
1477.802	343.33
1496.426	338.51
1514.978	334.97
1533.457	334.51
1551.864	334.51
1570.199	328.51
1588.464	311.51
1606.657	299.78
1624.78	292.06
1642.834	289.51
1660.817	289.06
1678.732	283.88
1696.577	271.51
1714.355	256.78
1732.064	241.06
1749.705	228.06
1767.28	219.97
1784.787	214.15
1802.228	208.51
1819.603	197.88
1836.913	188.69
1854.156	185.6
1871.335	183.78
1888.449	183.33
1905.499	181.42
1922.485	181.06
1939.408	177.06
1956.267	168.6
1973.063	155.69
1989.797	145.78
2006.469	139.42
2023.078	133.6
2039.627	126.88
2056.114	125.24
2072.54	125.51
2088.906	125.24
2105.211	120.24
2121.457	115.24
2137.643	110.15
2153.77	103.6
2169.838	96.6
2185.848	91.15
2201.799	87.97
2217.693	85.42
2233.529	82.97
2249.307	79.06
2265.029	74.42
2280.694	72.88
2296.302	69.88
2311.854	81.51
2327.351	97.33
2342.792	93.51
2358.178	63.97
2373.508	53.24
2388.785	51.78
2404.007	48.78
2419.174	45.69
2434.289	41.51
2449.349	39.24
2464.356	36.15
2479.311	35.42
2494.213	33.33
2509.062	33.24
2523.859	30.97
2538.605	27.51
2553.299	27.06
2567.941	25.78
2582.533	23.06
2597.073	20.15
2611.564	18.24
2626.004	16.24
2640.394	11.69
2654.734	7.87
2669.025	5.69
2683.266	3.33
2697.458	-0.12
2711.602	-2.22
2725.697	-2.22
2739.744	-2.31
2753.743	-4.22
2767.695	-8.31
2781.598	-8.49
2795.455	-9.03
2809.264	-8.85
2823.026	-9.85
2836.742	-11.31
2850.412	-14.22
2864.035	-15.85
2877.613	-17.12
2891.145	-20.4
2904.631	-23.22
2918.073	-25.85
2931.469	-26.31
2944.821	-27.67
2958.128	-27.76
2971.39	-28.4
2984.609	-28.94
2997.784	-31.4
3010.915	-32.12
3024.002	-32.85
3037.046	-35.94
3050.048	-36.85
3063.006	-37.85
3075.922	-38.12
3088.795	-39.31
3101.627	-41.94
3114.416	-41.76
3127.163	-43.03
3139.869	-42.94
3152.533	-43.49
3165.157	-44.4
3177.739	-45.03
3190.28	-46.22
3202.781	-46.94
3215.241	-48.76
3227.661	-49.22
3240.041	-50.31
3252.382	-49.76
3264.682	-50.67
3276.943	-48.94
3289.165	-48.94
3301.348	-49.85
3313.492	-51.49
3325.597	-53.31
3337.663	-54.12
3349.691	-54.67
3361.681	-54.94
3373.633	-55.22
3385.547	-55.12
3397.424	-54.94
3409.263	-55.22
3421.065	-55.4
3432.829	-55.4
3444.557	-57.12
3456.247	-57.58
3467.902	-57.76
3479.519	-57.31
3491.101	-57.76
3502.646	-57.22
3514.155	-56.4
3525.629	-56.4
3537.067	-55.67
3548.469	-55.94
3559.837	-56.31
3571.169	-57.85
3582.466	-59.12
3593.728	-60.31
3604.956	-60.76
3616.149	-59.58
3627.307	-57.94
3638.432	-57.49
3649.523	-58.58
3660.579	-59.94
3671.602	-61.12
3682.591	-61.85
3693.547	-60.67
3704.47	-60.85
3715.359	-62.58
3726.216	-63.76
3737.039	-63.4
3747.83	-61.4
3758.589	-59.85
3769.315	-59.94
3780.008	-63.58
3790.67	-64.49
3801.299	-63.31
3811.897	-61.12
3822.463	-62.31
3832.998	-64.03
3843.501	-63.22
3853.973	-59.85
3864.414	-47.49
3874.823	-3.76
3885.202	5.42
3895.55	-12.31
3905.868	-54.94
3916.155	-62.03
3926.411	-63.94
3936.638	-64.49
3946.834	-63.85
3957	-60.12
3967.137	-58.03
3977.244	-58.22
3987.321	-58.4
3997.369	-59.58
4007.388	-61.4
4017.377	-63.22
4027.338	-63.85
4037.269	-62.94
4047.172	-59.76
4057.046	-59.12
4066.891	-58.76
4076.708	-59.31
4086.497	-60.76
4096.257	-40.85
4105.989	-3.85
4115.694	-5.76
4125.37	-37.22
4135.019	-65.35
4142.237	-63.79