File: Data/Raman/2017-08-24 - Glass, alluminum 108/Aluminum II [full set]/Alu-BS-108 30s,I=1, BC=3, 1sta _RamanShift_3.txt
Data from Alu-BS-108 30s,I=1, BC=3, 1sta _RamanShift_3.txt Node

Date: Thu Aug 24 13:52:51 IDT 2017
User: aro
Spectrometer: QEPB0276
Trigger mode: 0
Integration Time (sec): 3.000000E1
Scans to average: 1
Electric dark correction enabled: true
Nonlinearity correction enabled: false
Boxcar width: 5
XAxis mode: Raman Shifts
Number of Pixels in Spectrum: 1044
>>>>>Begin Spectral Data<<<<<
160.701	177.92
184.826	592.15
208.845	1051.8
232.758	1440.52
256.565	1560.34
280.267	1662.34
303.865	1753.43
327.359	1823.52
350.751	1907.43
374.04	2006.25
397.228	2284.8
420.315	2337.89
443.302	2275.61
466.189	1945.7
488.978	1754.25
511.668	1480.25
534.261	1194.34
556.756	1039.8
579.155	991.43
601.459	963.98
623.667	993.34
645.781	985.8
667.8	945.34
689.726	822.34
711.56	789.8
733.301	804.8
754.951	827.07
776.509	859.25
797.977	859.43
819.355	841.8
840.644	790.7
861.844	737.16
882.955	690.43
903.979	663.89
924.916	649.52
945.766	639.07
966.529	624.52
987.208	610.52
1007.801	614.98
1028.309	625.34
1048.734	633.7
1069.075	627.25
1089.333	614.07
1109.509	592.52
1129.602	570.43
1149.614	563.07
1169.545	563.25
1189.395	559.89
1209.165	555.43
1228.856	551.34
1248.467	536.25
1268	510.25
1287.455	497.34
1306.832	498.07
1326.132	492.34
1345.354	475.98
1364.501	453.98
1383.572	434.7
1402.567	420.34
1421.487	416.43
1440.333	422.89
1459.104	427.34
1477.802	425.98
1496.426	423.43
1514.978	418.98
1533.457	412.8
1551.864	406.25
1570.199	393.89
1588.464	369.98
1606.657	353.25
1624.78	344.7
1642.834	344.52
1660.817	347.7
1678.732	348.8
1696.577	338.52
1714.355	323.8
1732.064	304.98
1749.705	287.7
1767.28	275.98
1784.787	270.16
1802.228	262.34
1819.603	247.89
1836.913	236.25
1854.156	233.98
1871.335	234.8
1888.449	238.25
1905.499	240.34
1922.485	240.98
1939.408	235.25
1956.267	220.43
1973.063	201.89
1989.797	188.16
2006.469	182.52
2023.078	176.8
2039.627	169.8
2056.114	168.43
2072.54	169.34
2088.906	168.98
2105.211	161.8
2121.457	155.16
2137.643	148.07
2153.77	139.07
2169.838	130.89
2185.848	122.25
2201.799	117.7
2217.693	115.7
2233.529	113.7
2249.307	108.25
2265.029	102.25
2280.694	99.7
2296.302	96.89
2311.854	107.43
2327.351	119.98
2342.792	114.07
2358.178	84.34
2373.508	74.34
2388.785	72.7
2404.007	68.7
2419.174	65.34
2434.289	62.25
2449.349	61.8
2464.356	59.98
2479.311	58.25
2494.213	56.07
2509.062	54.89
2523.859	52.61
2538.605	49.89
2553.299	47.34
2567.941	45.34
2582.533	43.61
2597.073	41.61
2611.564	38.8
2626.004	34.89
2640.394	30.07
2654.734	27.25
2669.025	23.34
2683.266	19.61
2697.458	16.07
2711.602	15.07
2725.697	14.16
2739.744	15.98
2753.743	16.7
2767.695	13.07
2781.598	9.34
2795.455	5.7
2809.264	4.61
2823.026	3.7
2836.742	2.8
2850.412	1.8
2864.035	2.7
2877.613	1.61
2891.145	-2.66
2904.631	-8.39
2918.073	-11.57
2931.469	-12.84
2944.821	-14.2
2958.128	-14.66
2971.39	-14.48
2984.609	-13.66
2997.784	-14.2
3010.915	-17.2
3024.002	-19.39
3037.046	-22.75
3050.048	-23.75
3063.006	-24.75
3075.922	-25.02
3088.795	-25.11
3101.627	-25.2
3114.416	-24.93
3127.163	-26.3
3139.869	-27.75
3152.533	-29.2
3165.157	-27.66
3177.739	-29.02
3190.28	-30.39
3202.781	-32.57
3215.241	-32.66
3227.661	-33.39
3240.041	-36.2
3252.382	-36.11
3264.682	-38.39
3276.943	-38.02
3289.165	-37.66
3301.348	-37.66
3313.492	-36.57
3325.597	-36.66
3337.663	-37.3
3349.691	-39.02
3361.681	-41.75
3373.633	-43.84
3385.547	-43.84
3397.424	-35.39
3409.263	-34.48
3421.065	-39.11
3432.829	-41.39
3444.557	-42.02
3456.247	-42.3
3467.902	-42.48
3479.519	-45.2
3491.101	-46.93
3502.646	-46.3
3514.155	-45.2
3525.629	-43.48
3537.067	-43.66
3548.469	-43.93
3559.837	-44.3
3571.169	-45.39
3582.466	-46.02
3593.728	-47.11
3604.956	-47.02
3616.149	-45.93
3627.307	-46.57
3638.432	-45.57
3649.523	-45.57
3660.579	-45.66
3671.602	-45.84
3682.591	-46.48
3693.547	-46.2
3704.47	-48.75
3715.359	-49.57
3726.216	-48.66
3737.039	-47.3
3747.83	-45.39
3758.589	-45.57
3769.315	-46.66
3780.008	-51.2
3790.67	-53.2
3801.299	-51.66
3811.897	-49.02
3822.463	-49.11
3832.998	-49.39
3843.501	-48.11
3853.973	-46.75
3864.414	-40.84
3874.823	-17.3
3885.202	-11.93
3895.55	-20.57
3905.868	-43.93
3916.155	-49.02
3926.411	-50.57
3936.638	-50.02
3946.834	-50.11
3957	-47.02
3967.137	-45.48
3977.244	-45.2
3987.321	-45.84
3997.369	-46.84
4007.388	-49.75
4017.377	-50.2
4027.338	-50.02
4037.269	-47.84
4047.172	-47.11
4057.046	-46.39
4066.891	-46.39
4076.708	-46.48
4086.497	-48.11
4096.257	-36.11
4105.989	-13.84
4115.694	-14.93
4125.37	-33.11
4135.019	-51.31
4142.237	-50.08