File: Data/Raman/2017-08-24 - Glass, alluminum 108/Aluminum II [full set]/Alu-EC107 30s,I=1, BC=3, 1sta _RamanShift_3.txt
Data from Alu-EC107 30s,I=1, BC=3, 1sta _RamanShift_3.txt Node

Date: Thu Aug 24 13:35:51 IDT 2017
User: aro
Spectrometer: QEPB0276
Trigger mode: 0
Integration Time (sec): 3.000000E1
Scans to average: 1
Electric dark correction enabled: true
Nonlinearity correction enabled: false
Boxcar width: 5
XAxis mode: Raman Shifts
Number of Pixels in Spectrum: 1044
>>>>>Begin Spectral Data<<<<<
160.701	181.71
184.826	555.77
208.845	962.06
232.758	1307.15
256.565	1412.69
280.267	1511.33
303.865	1600.6
327.359	1674.6
350.751	1770.69
374.04	1886.24
397.228	2190.24
420.315	2249.69
443.302	2183.97
466.189	1833.6
488.978	1628.88
511.668	1332.97
534.261	1026.69
556.756	858.6
579.155	806.88
601.459	780.15
623.667	824.06
645.781	822.97
667.8	780.51
689.726	652.88
711.56	620.24
733.301	639.69
754.951	661.88
776.509	695.06
797.977	696.88
819.355	686.42
840.644	634.15
861.844	575.24
882.955	526.69
903.979	497.97
924.916	490.78
945.766	483.42
966.529	473.78
987.208	465.33
1007.801	471.15
1028.309	484.06
1048.734	493.06
1069.075	491.42
1089.333	479.78
1109.509	458.42
1129.602	438.24
1149.614	433.78
1169.545	437.33
1189.395	441.69
1209.165	439.78
1228.856	439.33
1248.467	424.6
1268	398.33
1287.455	388.15
1306.832	398.15
1326.132	397.97
1345.354	386.42
1364.501	367.42
1383.572	354.06
1402.567	339.6
1421.487	332.06
1440.333	338.88
1459.104	344.06
1477.802	343.33
1496.426	343.24
1514.978	343.6
1533.457	341.97
1551.864	338.24
1570.199	327.42
1588.464	305.97
1606.657	293.78
1624.78	286.6
1642.834	284.24
1660.817	288.51
1678.732	288.6
1696.577	280.33
1714.355	266.69
1732.064	248.69
1749.705	235.6
1767.28	225.78
1784.787	221.06
1802.228	213.97
1819.603	203.33
1836.913	192.06
1854.156	185.97
1871.335	184.78
1888.449	184.69
1905.499	187.42
1922.485	190.97
1939.408	190.06
1956.267	177.97
1973.063	161.78
1989.797	148.06
2006.469	142.6
2023.078	136.88
2039.627	131.97
2056.114	131.69
2072.54	134.42
2088.906	134.6
2105.211	129.88
2121.457	121.97
2137.643	114.78
2153.77	106.33
2169.838	98.15
2185.848	92.33
2201.799	87.78
2217.693	85.88
2233.529	85.33
2249.307	82.33
2265.029	78.88
2280.694	75.78
2296.302	73.51
2311.854	82.88
2327.351	96.69
2342.792	91.88
2358.178	62.51
2373.508	53.51
2388.785	51.06
2404.007	47.6
2419.174	44.42
2434.289	42.97
2449.349	42.06
2464.356	37.78
2479.311	35.33
2494.213	32.33
2509.062	32.33
2523.859	31.15
2538.605	28.78
2553.299	29.51
2567.941	28.15
2582.533	25.24
2597.073	21.06
2611.564	16.24
2626.004	13.24
2640.394	9.51
2654.734	7.33
2669.025	6.24
2683.266	4.78
2697.458	2.06
2711.602	-1.58
2725.697	-1.94
2739.744	-1.49
2753.743	-1.76
2767.695	-5.31
2781.598	-7.22
2795.455	-8.22
2809.264	-8.4
2823.026	-9.12
2836.742	-10.13
2850.412	-12.67
2864.035	-13.94
2877.613	-15.4
2891.145	-19.31
2904.631	-22.49
2918.073	-25.03
2931.469	-25.85
2944.821	-28.58
2958.128	-29.03
2971.39	-28.22
2984.609	-27.94
2997.784	-29.12
3010.915	-31.67
3024.002	-34.12
3037.046	-37.31
3050.048	-37.67
3063.006	-38.49
3075.922	-39.49
3088.795	-40.58
3101.627	-42.4
3114.416	-41.76
3127.163	-42.67
3139.869	-42.94
3152.533	-45.22
3165.157	-45.12
3177.739	-46.31
3190.28	-46.4
3202.781	-47.67
3215.241	-48.12
3227.661	-49.4
3240.041	-51.22
3252.382	-51.67
3264.682	-51.94
3276.943	-50.22
3289.165	-49.76
3301.348	-49.94
3313.492	-51.03
3325.597	-52.4
3337.663	-53.58
3349.691	-55.12
3361.681	-55.22
3373.633	-55.49
3385.547	-54.67
3397.424	-54.31
3409.263	-55.31
3421.065	-56.12
3432.829	-55.12
3444.557	-56.03
3456.247	-55.76
3467.902	-56.49
3479.519	-57.49
3491.101	-58.67
3502.646	-57.85
3514.155	-58.67
3525.629	-58.03
3537.067	-57.12
3548.469	-56.94
3559.837	-57.49
3571.169	-59.67
3582.466	-59.85
3593.728	-61.22
3604.956	-61.49
3616.149	-61.76
3627.307	-61.94
3638.432	-60.03
3649.523	-60.49
3660.579	-60.85
3671.602	-63.85
3682.591	-64.31
3693.547	-63.67
3704.47	-62.67
3715.359	-62.94
3726.216	-62.58
3737.039	-62.49
3747.83	-62.49
3758.589	-62.49
3769.315	-64.31
3780.008	-68.31
3790.67	-68.4
3801.299	-65.22
3811.897	-61.4
3822.463	-61.94
3832.998	-63.12
3843.501	-62.76
3853.973	-62.03
3864.414	-53.22
3874.823	-12.76
3885.202	-3.22
3895.55	-18.31
3905.868	-56.22
3916.155	-61.67
3926.411	-63.12
3936.638	-63.94
3946.834	-64.31
3957	-62.67
3967.137	-61.03
3977.244	-61.94
3987.321	-61.76
3997.369	-61.85
4007.388	-62.94
4017.377	-63.76
4027.338	-64.31
4037.269	-64.76
4047.172	-63.67
4057.046	-62.12
4066.891	-59.67
4076.708	-59.58
4086.497	-61.4
4096.257	-40.85
4105.989	-3.76
4115.694	-5.49
4125.37	-37.94
4135.019	-66.79
4142.237	-65.29