File: Data/Raman/2017-08-24 - Glass, alluminum 108/Aluminum II [full set]/Alu-BS-107 30s,I=1, BC=3, 1sta _RamanShift_1.txt
Data from Alu-BS-107 30s,I=1, BC=3, 1sta _RamanShift_1.txt Node

Date: Thu Aug 24 13:48:21 IDT 2017
User: aro
Spectrometer: QEPB0276
Trigger mode: 0
Integration Time (sec): 3.000000E1
Scans to average: 1
Electric dark correction enabled: true
Nonlinearity correction enabled: false
Boxcar width: 5
XAxis mode: Raman Shifts
Number of Pixels in Spectrum: 1044
>>>>>Begin Spectral Data<<<<<
160.701	205.33
184.826	602.5
208.845	1042.05
232.758	1413.05
256.565	1526.68
280.267	1633.23
303.865	1722.68
327.359	1800.05
350.751	1892.86
374.04	2001.68
397.228	2297.14
420.315	2355.05
443.302	2284.86
466.189	1939.77
488.978	1729.23
511.668	1442.14
534.261	1135.59
556.756	970.68
579.155	915.77
601.459	887.5
623.667	921.41
645.781	916.41
667.8	873.86
689.726	753.59
711.56	719.77
733.301	738.14
754.951	756.68
776.509	788.05
797.977	785.32
819.355	771.05
840.644	716.77
861.844	658.68
882.955	611.05
903.979	581.59
924.916	570.05
945.766	564.05
966.529	550.77
987.208	539.95
1007.801	542.95
1028.309	555.77
1048.734	561.77
1069.075	561.05
1089.333	548.68
1109.509	526.32
1129.602	504.86
1149.614	497.32
1169.545	502.5
1189.395	504.5
1209.165	504.86
1228.856	499.68
1248.467	480.23
1268	455.14
1287.455	443.59
1306.832	445.77
1326.132	442.95
1345.354	429.86
1364.501	411.05
1383.572	392.77
1402.567	378.5
1421.487	373.5
1440.333	379.95
1459.104	382.68
1477.802	378.95
1496.426	377.32
1514.978	372.41
1533.457	370.59
1551.864	368.23
1570.199	359.41
1588.464	336.05
1606.657	320.32
1624.78	312.59
1642.834	313.86
1660.817	316.77
1678.732	313.32
1696.577	300.14
1714.355	283.5
1732.064	264.05
1749.705	246.23
1767.28	233.41
1784.787	224.95
1802.228	217.5
1819.603	204.95
1836.913	196.41
1854.156	194.05
1871.335	193.77
1888.449	195.05
1905.499	192.59
1922.485	191.23
1939.408	184.32
1956.267	173.95
1973.063	159.5
1989.797	149.5
2006.469	145.95
2023.078	139.32
2039.627	131.41
2056.114	130.59
2072.54	133.05
2088.906	132.23
2105.211	125.5
2121.457	119.68
2137.643	113.23
2153.77	105.86
2169.838	95.77
2185.848	88.68
2201.799	84.5
2217.693	83.05
2233.529	81.86
2249.307	78.14
2265.029	74.14
2280.694	71.05
2296.302	67.23
2311.854	79.59
2327.351	94.86
2342.792	90.05
2358.178	58.95
2373.508	50.32
2388.785	49.95
2404.007	45.95
2419.174	42.14
2434.289	40.41
2449.349	38.59
2464.356	34.77
2479.311	32.86
2494.213	30.41
2509.062	31.05
2523.859	28.32
2538.605	24.68
2553.299	22.95
2567.941	21.41
2582.533	17.95
2597.073	16.23
2611.564	11.23
2626.004	8.14
2640.394	3.23
2654.734	0.32
2669.025	-1.59
2683.266	-3.5
2697.458	-4.95
2711.602	-5.23
2725.697	-4.32
2739.744	-4.14
2753.743	-8.59
2767.695	-14.32
2781.598	-18.41
2795.455	-17.59
2809.264	-16.41
2823.026	-15.68
2836.742	-17.86
2850.412	-19.23
2864.035	-19.05
2877.613	-20.05
2891.145	-24.95
2904.631	-30.41
2918.073	-35.86
2931.469	-37.14
2944.821	-38.23
2958.128	-37.23
2971.39	-36.59
2984.609	-36.77
2997.784	-38.14
3010.915	-42.05
3024.002	-45.32
3037.046	-48.14
3050.048	-48.23
3063.006	-48.86
3075.922	-47.77
3088.795	-46.95
3101.627	-48.05
3114.416	-48.86
3127.163	-51.86
3139.869	-53.68
3152.533	-56.05
3165.157	-57.05
3177.739	-58.41
3190.28	-57.95
3202.781	-56.59
3215.241	-56.5
3227.661	-58.14
3240.041	-60.5
3252.382	-61.77
3264.682	-62.32
3276.943	-62.59
3289.165	-62.77
3301.348	-63.5
3313.492	-62.68
3325.597	-63.14
3337.663	-63.14
3349.691	-65.77
3361.681	-67.5
3373.633	-68.95
3385.547	-68.86
3397.424	-68.41
3409.263	-67.05
3421.065	-64.59
3432.829	-62.77
3444.557	-63.32
3456.247	-63.86
3467.902	-65.41
3479.519	-67.5
3491.101	-69.77
3502.646	-69.68
3514.155	-68.5
3525.629	-66.95
3537.067	-67.59
3548.469	-67.59
3559.837	-68.59
3571.169	-69.05
3582.466	-70.68
3593.728	-72.59
3604.956	-73.23
3616.149	-70.95
3627.307	-71.05
3638.432	-71.05
3649.523	-72.59
3660.579	-73.86
3671.602	-75.05
3682.591	-75.86
3693.547	-74.5
3704.47	-74.59
3715.359	-74.68
3726.216	-75.32
3737.039	-75.68
3747.83	-75.68
3758.589	-75.77
3769.315	-75.23
3780.008	-78.14
3790.67	-78.95
3801.299	-76.68
3811.897	-74.23
3822.463	-74.59
3832.998	-76.32
3843.501	-75.14
3853.973	-72.95
3864.414	-56.59
3874.823	3.68
3885.202	14.41
3895.55	-11.77
3905.868	-67.5
3916.155	-75.14
3926.411	-75.77
3936.638	-75.23
3946.834	-73.95
3957	-71.41
3967.137	-69.86
3977.244	-71.41
3987.321	-72.86
3997.369	-74.5
4007.388	-76.41
4017.377	-75.95
4027.338	-76.86
4037.269	-75.59
4047.172	-73.68
4057.046	-72.59
4066.891	-72.77
4076.708	-73.86
4086.497	-74.32
4096.257	-46.59
4105.989	4.59
4115.694	3.14
4125.37	-40.14
4135.019	-79.28
4142.237	-77.83