File: Data/Raman/2017-08-24 - Glass, alluminum 108/Aluminum II [full set]/Alu-EC108 30s,I=1, BC=3, 1sta _RamanShift_3.txt
Data from Alu-EC108 30s,I=1, BC=3, 1sta _RamanShift_3.txt Node

Date: Thu Aug 24 13:38:21 IDT 2017
User: aro
Spectrometer: QEPB0276
Trigger mode: 0
Integration Time (sec): 3.000000E1
Scans to average: 1
Electric dark correction enabled: true
Nonlinearity correction enabled: false
Boxcar width: 5
XAxis mode: Raman Shifts
Number of Pixels in Spectrum: 1044
>>>>>Begin Spectral Data<<<<<
160.701	216.54
184.826	719.38
208.845	1276.47
232.758	1746.74
256.565	1884.28
280.267	2004.38
303.865	2101.92
327.359	2176.01
350.751	2260.83
374.04	2357.01
397.228	2640.38
420.315	2691.92
443.302	2630.47
466.189	2296.56
488.978	2096.1
511.668	1816.01
534.261	1520.19
556.756	1357.74
579.155	1297.74
601.459	1267.47
623.667	1295.28
645.781	1285.01
667.8	1239.19
689.726	1113.1
711.56	1078.19
733.301	1090.74
754.951	1108.28
776.509	1135.92
797.977	1132.19
819.355	1109.1
840.644	1057.1
861.844	999.56
882.955	951.19
903.979	915.83
924.916	902.1
945.766	891.92
966.529	872.56
987.208	852.56
1007.801	854.38
1028.309	867.19
1048.734	870.01
1069.075	862.38
1089.333	849.38
1109.509	824.92
1129.602	796.47
1149.614	784.56
1169.545	784.65
1189.395	778.1
1209.165	770.1
1228.856	765.1
1248.467	744.47
1268	713.19
1287.455	696.83
1306.832	699.83
1326.132	692.47
1345.354	667.65
1364.501	633.92
1383.572	606.74
1402.567	588.28
1421.487	581.65
1440.333	590.74
1459.104	594.74
1477.802	589.38
1496.426	584.01
1514.978	573.1
1533.457	557.92
1551.864	543.19
1570.199	530.38
1588.464	507.19
1606.657	489.47
1624.78	478.1
1642.834	477.28
1660.817	482.83
1678.732	479.19
1696.577	460.74
1714.355	435.01
1732.064	408.65
1749.705	388.38
1767.28	373.83
1784.787	365.83
1802.228	353.56
1819.603	335.47
1836.913	323.56
1854.156	319.56
1871.335	322.74
1888.449	321.38
1905.499	322.19
1922.485	319.74
1939.408	312.47
1956.267	294.28
1973.063	271.47
1989.797	253.65
2006.469	247.47
2023.078	239.28
2039.627	231.92
2056.114	228.92
2072.54	230.65
2088.906	229.19
2105.211	217.92
2121.457	206.56
2137.643	195.56
2153.77	186.92
2169.838	177.28
2185.848	167.56
2201.799	162.1
2217.693	158.28
2233.529	155.92
2249.307	149.47
2265.029	141.1
2280.694	133.74
2296.302	126.65
2311.854	135.74
2327.351	149.47
2342.792	145.1
2358.178	115.19
2373.508	105.38
2388.785	102.74
2404.007	97.83
2419.174	92.47
2434.289	88.92
2449.349	87.65
2464.356	85.56
2479.311	83.28
2494.213	79.74
2509.062	78.74
2523.859	75.19
2538.605	71.38
2553.299	69.1
2567.941	65.74
2582.533	61.28
2597.073	55.38
2611.564	51.83
2626.004	48.92
2640.394	43.56
2654.734	38.65
2669.025	34.83
2683.266	29.83
2697.458	26.19
2711.602	23.65
2725.697	23.47
2739.744	23.47
2753.743	21.92
2767.695	17.1
2781.598	12.65
2795.455	10.01
2809.264	9.92
2823.026	8.92
2836.742	7.28
2850.412	5.38
2864.035	5.56
2877.613	4.92
2891.145	0.47
2904.631	-4.26
2918.073	-9.9
2931.469	-12.35
2944.821	-13.44
2958.128	-13.53
2971.39	-14.17
2984.609	-14.35
2997.784	-16.35
3010.915	-19.81
3024.002	-24.17
3037.046	-28.35
3050.048	-30.08
3063.006	-30.26
3075.922	-31.17
3088.795	-31.99
3101.627	-32.99
3114.416	-33.35
3127.163	-35.08
3139.869	-37.17
3152.533	-37.81
3165.157	-38.81
3177.739	-40.44
3190.28	-42.9
3202.781	-43.35
3215.241	-44.08
3227.661	-43.26
3240.041	-45.44
3252.382	-45.81
3264.682	-49.08
3276.943	-48.53
3289.165	-48.17
3301.348	-48.44
3313.492	-49.53
3325.597	-50.9
3337.663	-51.53
3349.691	-53.72
3361.681	-55.72
3373.633	-55.17
3385.547	-53.72
3397.424	-52.81
3409.263	-54.35
3421.065	-54.99
3432.829	-55.35
3444.557	-54.9
3456.247	-54.81
3467.902	-54.62
3479.519	-56.35
3491.101	-57.17
3502.646	-57.53
3514.155	-57.17
3525.629	-56.81
3537.067	-56.81
3548.469	-57.26
3559.837	-58.35
3571.169	-58.62
3582.466	-58.9
3593.728	-60.35
3604.956	-60.53
3616.149	-59.62
3627.307	-59.08
3638.432	-57.99
3649.523	-59.35
3660.579	-59.62
3671.602	-60.72
3682.591	-60.81
3693.547	-60.44
3704.47	-60.72
3715.359	-61.53
3726.216	-62.17
3737.039	-62.08
3747.83	-61.08
3758.589	-60.72
3769.315	-61.9
3780.008	-65.72
3790.67	-67.35
3801.299	-64.81
3811.897	-62.26
3822.463	-61.99
3832.998	-62.99
3843.501	-62.17
3853.973	-61.53
3864.414	-52.99
3874.823	-17.62
3885.202	-11.17
3895.55	-24.99
3905.868	-57.81
3916.155	-61.81
3926.411	-62.44
3936.638	-62.72
3946.834	-63.26
3957	-60.62
3967.137	-59.81
3977.244	-60.81
3987.321	-62.08
3997.369	-62.08
4007.388	-61.17
4017.377	-61.17
4027.338	-61.26
4037.269	-60.99
4047.172	-60.72
4057.046	-61.53
4066.891	-61.62
4076.708	-62.44
4086.497	-62.17
4096.257	-45.26
4105.989	-12.26
4115.694	-13.62
4125.37	-39.17
4135.019	-64.4
4142.237	-63.12