File: Data/Raman/2017-08-24 - Glass, alluminum 108/Aluminum II [full set]/Alu-BS-108 30s,I=1, BC=3, 1sta _RamanShift_1.txt
Data from Alu-BS-108 30s,I=1, BC=3, 1sta _RamanShift_1.txt Node

Date: Thu Aug 24 13:51:51 IDT 2017
User: aro
Spectrometer: QEPB0276
Trigger mode: 0
Integration Time (sec): 3.000000E1
Scans to average: 1
Electric dark correction enabled: true
Nonlinearity correction enabled: false
Boxcar width: 5
XAxis mode: Raman Shifts
Number of Pixels in Spectrum: 1044
>>>>>Begin Spectral Data<<<<<
160.701	184.58
184.826	616.65
208.845	1096.34
232.758	1497.7
256.565	1616.8
280.267	1722.7
303.865	1817.16
327.359	1889.16
350.751	1970.34
374.04	2070.07
397.228	2346.8
420.315	2400.89
443.302	2337.16
466.189	2013.25
488.978	1821.52
511.668	1550.25
534.261	1264.07
556.756	1104.8
579.155	1051.07
601.459	1021.7
623.667	1050.34
645.781	1036.89
667.8	993.07
689.726	878.34
711.56	848.16
733.301	863.34
754.951	881.16
776.509	910.52
797.977	906.52
819.355	888.43
840.644	836.7
861.844	781.61
882.955	734.43
903.979	704.61
924.916	693.25
945.766	686.07
966.529	670.52
987.208	654.98
1007.801	655.25
1028.309	666.16
1048.734	670.8
1069.075	665.34
1089.333	651.52
1109.509	629.16
1129.602	608.07
1149.614	601.25
1169.545	599.61
1189.395	596.7
1209.165	589.25
1228.856	587.43
1248.467	569.98
1268	541.98
1287.455	527.89
1306.832	527.7
1326.132	524.98
1345.354	509.8
1364.501	486.34
1383.572	464.16
1402.567	447.43
1421.487	440.25
1440.333	446.8
1459.104	453.34
1477.802	454.25
1496.426	453.16
1514.978	445.25
1533.457	437.52
1551.864	428.34
1570.199	414.52
1588.464	388.7
1606.657	372.52
1624.78	364.89
1642.834	366.43
1660.817	372.8
1678.732	371.43
1696.577	359.07
1714.355	339.7
1732.064	317.43
1749.705	298.98
1767.28	291.8
1784.787	288.8
1802.228	281.89
1819.603	263.89
1836.913	250.25
1854.156	244.7
1871.335	245.8
1888.449	248.43
1905.499	251.25
1922.485	254.34
1939.408	249.89
1956.267	235.52
1973.063	218.07
1989.797	203.07
2006.469	194.07
2023.078	184.8
2039.627	176.16
2056.114	173.98
2072.54	176.8
2088.906	177.98
2105.211	174.16
2121.457	167.16
2137.643	158.34
2153.77	149.25
2169.838	138.34
2185.848	129.52
2201.799	123.8
2217.693	120.8
2233.529	118.8
2249.307	114.8
2265.029	109.52
2280.694	105.25
2296.302	99.98
2311.854	109.7
2327.351	123.8
2342.792	118.07
2358.178	87.43
2373.508	78.16
2388.785	76.34
2404.007	71.98
2419.174	69.89
2434.289	68.7
2449.349	66.34
2464.356	64.07
2479.311	61.43
2494.213	58.8
2509.062	58.52
2523.859	55.34
2538.605	51.43
2553.299	49.52
2567.941	48.52
2582.533	46.07
2597.073	43.34
2611.564	41.07
2626.004	37.07
2640.394	31.61
2654.734	26.61
2669.025	24.07
2683.266	22.34
2697.458	19.8
2711.602	18.34
2725.697	17.89
2739.744	19.61
2753.743	18.34
2767.695	14.07
2781.598	9.89
2795.455	7.25
2809.264	5.98
2823.026	5.89
2836.742	5.16
2850.412	4.8
2864.035	5.07
2877.613	2.7
2891.145	-2.2
2904.631	-7.11
2918.073	-10.93
2931.469	-11.93
2944.821	-11.75
2958.128	-11.2
2971.39	-10.02
2984.609	-11.48
2997.784	-13.02
3010.915	-17.39
3024.002	-20.2
3037.046	-23.93
3050.048	-24.39
3063.006	-24.11
3075.922	-23.57
3088.795	-22.75
3101.627	-24.3
3114.416	-25.66
3127.163	-27.3
3139.869	-28.48
3152.533	-31.3
3165.157	-32.39
3177.739	-32.75
3190.28	-31.93
3202.781	-31.3
3215.241	-31.75
3227.661	-33.11
3240.041	-35.57
3252.382	-36.66
3264.682	-38.02
3276.943	-37.66
3289.165	-36.39
3301.348	-35.84
3313.492	-35.93
3325.597	-37.66
3337.663	-39.3
3349.691	-40.66
3361.681	-42.84
3373.633	-44.48
3385.547	-43.84
3397.424	-42.84
3409.263	-42.39
3421.065	-42.2
3432.829	-41.2
3444.557	-41.02
3456.247	-42.48
3467.902	-41.93
3479.519	-44.93
3491.101	-46.11
3502.646	-46.11
3514.155	-46.3
3525.629	-45.66
3537.067	-45.02
3548.469	-44.39
3559.837	-43.93
3571.169	-44.2
3582.466	-44.48
3593.728	-45.39
3604.956	-45.66
3616.149	-46.3
3627.307	-47.39
3638.432	-47.11
3649.523	-46.84
3660.579	-46.02
3671.602	-46.02
3682.591	-46.3
3693.547	-45.93
3704.47	-47.11
3715.359	-48.93
3726.216	-50.66
3737.039	-49.48
3747.83	-47.57
3758.589	-45.48
3769.315	-45.75
3780.008	-49.57
3790.67	-50.75
3801.299	-48.57
3811.897	-46.84
3822.463	-47.66
3832.998	-49.93
3843.501	-49.3
3853.973	-48.2
3864.414	-42.3
3874.823	-18.11
3885.202	-11.66
3895.55	-21.11
3905.868	-44.48
3916.155	-49.2
3926.411	-50.84
3936.638	-50.84
3946.834	-50.57
3957	-47.39
3967.137	-45.57
3977.244	-44.02
3987.321	-45.3
3997.369	-45.84
4007.388	-48.11
4017.377	-49.2
4027.338	-50.66
4037.269	-49.02
4047.172	-46.11
4057.046	-44.75
4066.891	-45.66
4076.708	-46.66
4086.497	-48.66
4096.257	-36.75
4105.989	-13.2
4115.694	-15.3
4125.37	-34.48
4135.019	-52.53
4142.237	-50.75