File: Data/Raman/2017-08-24 - Glass, alluminum 108/Aluminum II [full set]/Alu-BS-108 30s,I=1, BC=3, 1sta _RamanShift_2.txt
Data from Alu-BS-108 30s,I=1, BC=3, 1sta _RamanShift_2.txt Node

Date: Thu Aug 24 13:52:21 IDT 2017
User: aro
Spectrometer: QEPB0276
Trigger mode: 0
Integration Time (sec): 3.000000E1
Scans to average: 1
Electric dark correction enabled: true
Nonlinearity correction enabled: false
Boxcar width: 5
XAxis mode: Raman Shifts
Number of Pixels in Spectrum: 1044
>>>>>Begin Spectral Data<<<<<
160.701	182.88
184.826	608.67
208.845	1076.83
232.758	1469.19
256.565	1584.83
280.267	1696.47
303.865	1785.56
327.359	1857.38
350.751	1936.01
374.04	2037.28
397.228	2319.56
420.315	2369.92
443.302	2305.38
466.189	1977.1
488.978	1782.01
511.668	1509.28
534.261	1221.56
556.756	1067.19
579.155	1017.47
601.459	990.74
623.667	1020.65
645.781	1009.83
667.8	967.1
689.726	848.74
711.56	817.28
733.301	833.65
754.951	855.38
776.509	884.74
797.977	881.65
819.355	863.19
840.644	810.47
861.844	756.56
882.955	710.92
903.979	682.56
924.916	669.56
945.766	661.19
966.529	646.28
987.208	632.19
1007.801	634.92
1028.309	645.65
1048.734	648.92
1069.075	643.1
1089.333	634.38
1109.509	614.1
1129.602	591.47
1149.614	579.47
1169.545	576.65
1189.395	575.65
1209.165	572.19
1228.856	569.19
1248.467	548.19
1268	519.38
1287.455	509.56
1306.832	512.28
1326.132	508.92
1345.354	490.28
1364.501	469.19
1383.572	449.47
1402.567	433.56
1421.487	428.65
1440.333	453.01
1459.104	457.74
1477.802	456.92
1496.426	440.74
1514.978	434.28
1533.457	424.83
1551.864	416.19
1570.199	403.1
1588.464	380.19
1606.657	362.1
1624.78	353.65
1642.834	354.83
1660.817	361.28
1678.732	361.38
1696.577	349.83
1714.355	332.56
1732.064	312.92
1749.705	294.28
1767.28	282.56
1784.787	278.92
1802.228	271.74
1819.603	256.74
1836.913	244.65
1854.156	241.01
1871.335	243.1
1888.449	244.28
1905.499	244.92
1922.485	247.1
1939.408	243.1
1956.267	231.1
1973.063	211.38
1989.797	195.92
2006.469	188.56
2023.078	182.01
2039.627	173.83
2056.114	173.74
2072.54	175.56
2088.906	175.83
2105.211	167.47
2121.457	159.56
2137.643	149.83
2153.77	142.01
2169.838	134.19
2185.848	126.74
2201.799	122.37
2217.693	119.38
2233.529	118.1
2249.307	114.01
2265.029	108.83
2280.694	104.56
2296.302	100.19
2311.854	110.92
2327.351	124.01
2342.792	116.47
2358.178	87.19
2373.508	77.38
2388.785	75.65
2404.007	73.56
2419.174	71.19
2434.289	68.92
2449.349	68.01
2464.356	64.38
2479.311	61.28
2494.213	57.74
2509.062	56.1
2523.859	55.19
2538.605	52.56
2553.299	53.01
2567.941	52.65
2582.533	51.28
2597.073	48.38
2611.564	42.19
2626.004	35.28
2640.394	29.1
2654.734	27.28
2669.025	25.56
2683.266	24.19
2697.458	20.65
2711.602	19.56
2725.697	18.65
2739.744	18.19
2753.743	16.38
2767.695	12.65
2781.598	9.1
2795.455	8.65
2809.264	9.83
2823.026	9.28
2836.742	7.74
2850.412	5.01
2864.035	3.74
2877.613	1.47
2891.145	-1.99
2904.631	-4.44
2918.073	-6.44
2931.469	-8.08
2944.821	-9.99
2958.128	-11.26
2971.39	-10.81
2984.609	-11.35
2997.784	-12.99
3010.915	-16.53
3024.002	-18.81
3037.046	-20.99
3050.048	-20.44
3063.006	-19.35
3075.922	-19.9
3088.795	-20.9
3101.627	-22.72
3114.416	-24.17
3127.163	-27.53
3139.869	-30.08
3152.533	-30.26
3165.157	-28.99
3177.739	-28.53
3190.28	-29.17
3202.781	-28.9
3215.241	-29.26
3227.661	-30.9
3240.041	-34.53
3252.382	-36.08
3264.682	-37.26
3276.943	-36.44
3289.165	-34.44
3301.348	-34.9
3313.492	-34.81
3325.597	-35.9
3337.663	-37.26
3349.691	-38.72
3361.681	-40.99
3373.633	-41.99
3385.547	-42.08
3397.424	-40.81
3409.263	-41.08
3421.065	-40.81
3432.829	-39.26
3444.557	-39.08
3456.247	-38.08
3467.902	-38.72
3479.519	-41.44
3491.101	-43.81
3502.646	-43.53
3514.155	-42.81
3525.629	-41.81
3537.067	-41.44
3548.469	-40.99
3559.837	-42.26
3571.169	-43.72
3582.466	-44.26
3593.728	-44.35
3604.956	-44.99
3616.149	-44.62
3627.307	-44.81
3638.432	-43.44
3649.523	-44.17
3660.579	-45.44
3671.602	-47.81
3682.591	-47.99
3693.547	-46.44
3704.47	-46.17
3715.359	-45.26
3726.216	-46.08
3737.039	-45.81
3747.83	-46.35
3758.589	-45.81
3769.315	-46.9
3780.008	-50.72
3790.67	-50.44
3801.299	-46.53
3811.897	-44.08
3822.463	-44.72
3832.998	-46.72
3843.501	-47.99
3853.973	-48.72
3864.414	-42.62
3874.823	-17.35
3885.202	-10.17
3895.55	-19.72
3905.868	-42.17
3916.155	-46.53
3926.411	-46.99
3936.638	-48.35
3946.834	-48.53
3957	-45.81
3967.137	-42.9
3977.244	-42.08
3987.321	-42.53
3997.369	-44.08
4007.388	-46.17
4017.377	-47.35
4027.338	-47.99
4037.269	-46.17
4047.172	-43.81
4057.046	-41.99
4066.891	-41.81
4076.708	-43.08
4086.497	-45.08
4096.257	-33.44
4105.989	-11.26
4115.694	-14.08
4125.37	-33.35
4135.019	-51.51
4142.237	-49.46