File: Data/Raman/2017-08-24 - Glass, alluminum 108/Aluminum II [full set]/Alu-BS-107 30s,I=1, BC=3, 1sta _RamanShift_2.txt
Data from Alu-BS-107 30s,I=1, BC=3, 1sta _RamanShift_2.txt Node

Date: Thu Aug 24 13:48:51 IDT 2017
User: aro
Spectrometer: QEPB0276
Trigger mode: 0
Integration Time (sec): 3.000000E1
Scans to average: 1
Electric dark correction enabled: true
Nonlinearity correction enabled: false
Boxcar width: 5
XAxis mode: Raman Shifts
Number of Pixels in Spectrum: 1044
>>>>>Begin Spectral Data<<<<<
160.701	200.75
184.826	593.05
208.845	1022.61
232.758	1385.89
256.565	1498.98
280.267	1597.61
303.865	1687.61
327.359	1763.16
350.751	1858.25
374.04	1972.52
397.228	2273.34
420.315	2329.07
443.302	2260.43
466.189	1913.98
488.978	1705.16
511.668	1411.16
534.261	1105.89
556.756	939.89
579.155	889.34
601.459	862.52
623.667	897.89
645.781	890.52
667.8	844.52
689.726	718.34
711.56	686.8
733.301	706.7
754.951	729.25
776.509	761.8
797.977	762.61
819.355	750.43
840.644	697.7
861.844	641.52
882.955	589.61
903.979	561.7
924.916	548.16
945.766	543.07
966.529	532.34
987.208	522.43
1007.801	524.25
1028.309	538.07
1048.734	545.7
1069.075	543.43
1089.333	529.98
1109.509	507.89
1129.602	486.98
1149.614	480.98
1169.545	484.43
1189.395	484.52
1209.165	480.7
1228.856	481.52
1248.467	467.52
1268	443.43
1287.455	427.16
1306.832	427.8
1326.132	425.8
1345.354	412.25
1364.501	393.98
1383.572	378.43
1402.567	365.89
1421.487	361.43
1440.333	367.25
1459.104	372.16
1477.802	371.43
1496.426	368.07
1514.978	363.25
1533.457	358.98
1551.864	357.43
1570.199	348.89
1588.464	327.25
1606.657	313.43
1624.78	305.52
1642.834	303.34
1660.817	303.98
1678.732	300.43
1696.577	290.25
1714.355	273.8
1732.064	256.34
1749.705	240.16
1767.28	230.43
1784.787	223.7
1802.228	214.61
1819.603	200.07
1836.913	188.34
1854.156	185.98
1871.335	188.61
1888.449	191.89
1905.499	190.34
1922.485	189.07
1939.408	182.89
1956.267	169.52
1973.063	153.43
1989.797	142.34
2006.469	137.07
2023.078	132.43
2039.627	127.61
2056.114	128.16
2072.54	130.89
2088.906	131.16
2105.211	122.43
2121.457	113.8
2137.643	106.34
2153.77	101.07
2169.838	93.25
2185.848	86.8
2201.799	82.16
2217.693	81.61
2233.529	81.16
2249.307	77.8
2265.029	72.25
2280.694	67.98
2296.302	63.34
2311.854	75.16
2327.351	92.07
2342.792	87.7
2358.178	58.07
2373.508	47.89
2388.785	47.25
2404.007	44.16
2419.174	40.61
2434.289	37.61
2449.349	35.43
2464.356	31.98
2479.311	30.34
2494.213	29.52
2509.062	29.89
2523.859	28.07
2538.605	22.8
2553.299	20.7
2567.941	19.16
2582.533	16.98
2597.073	14.98
2611.564	12.43
2626.004	9.34
2640.394	4.98
2654.734	0.52
2669.025	-2.3
2683.266	-5.2
2697.458	-6.84
2711.602	-8.39
2725.697	-6.57
2739.744	-4.75
2753.743	-5.84
2767.695	-10.66
2781.598	-14.39
2795.455	-17.66
2809.264	-18.11
2823.026	-18.11
2836.742	-19.39
2850.412	-20.3
2864.035	-20.11
2877.613	-22.11
2891.145	-25.3
2904.631	-30.2
2918.073	-34.11
2931.469	-34.84
2944.821	-36.39
2958.128	-37.3
2971.39	-38.84
2984.609	-38.93
2997.784	-40.57
3010.915	-42.84
3024.002	-43.57
3037.046	-46.11
3050.048	-46.57
3063.006	-47.2
3075.922	-47.2
3088.795	-48.11
3101.627	-50.48
3114.416	-51.2
3127.163	-53.66
3139.869	-55.39
3152.533	-56.39
3165.157	-55.84
3177.739	-55.75
3190.28	-56.39
3202.781	-56.02
3215.241	-57.75
3227.661	-59.48
3240.041	-61.39
3252.382	-61.66
3264.682	-62.11
3276.943	-62.02
3289.165	-61.39
3301.348	-62.39
3313.492	-62.02
3325.597	-63.66
3337.663	-65.11
3349.691	-66.48
3361.681	-67.2
3373.633	-66.66
3385.547	-65.39
3397.424	-64.75
3409.263	-66.57
3421.065	-67.57
3432.829	-67.57
3444.557	-67.48
3456.247	-66.39
3467.902	-66.02
3479.519	-66.11
3491.101	-67.66
3502.646	-67.75
3514.155	-68.3
3525.629	-66.57
3537.067	-66.39
3548.469	-67.2
3559.837	-67.93
3571.169	-69.66
3582.466	-69.84
3593.728	-69.39
3604.956	-69.39
3616.149	-68.48
3627.307	-69.11
3638.432	-70.75
3649.523	-74.3
3660.579	-75.2
3671.602	-74.02
3682.591	-72.48
3693.547	-70.48
3704.47	-70.84
3715.359	-71.57
3726.216	-73.48
3737.039	-74.2
3747.83	-75.57
3758.589	-75.2
3769.315	-74.93
3780.008	-77.57
3790.67	-77.02
3801.299	-74.57
3811.897	-72.48
3822.463	-73.93
3832.998	-76.02
3843.501	-75.84
3853.973	-73.93
3864.414	-56.75
3874.823	5.34
3885.202	17.89
3895.55	-8.66
3905.868	-65.75
3916.155	-75.2
3926.411	-77.11
3936.638	-77.84
3946.834	-75.66
3957	-72.93
3967.137	-70.3
3977.244	-70.66
3987.321	-70.2
3997.369	-71.3
4007.388	-74.2
4017.377	-75.75
4027.338	-76.66
4037.269	-77.02
4047.172	-74.11
4057.046	-72.48
4066.891	-71.48
4076.708	-71.93
4086.497	-73.48
4096.257	-47.02
4105.989	1.7
4115.694	0.43
4125.37	-40.11
4135.019	-77.08
4142.237	-76.25