File: Data/Raman/2017-08-24 - Glass, alluminum 108/Aluminum II [full set]/Alu-BS-1-2 30s,I=1, BC=3, 1sta _RamanShift_3.txt
Data from Alu-BS-1-2 30s,I=1, BC=3, 1sta _RamanShift_3.txt Node

Date: Thu Aug 24 13:46:51 IDT 2017
User: aro
Spectrometer: QEPB0276
Trigger mode: 0
Integration Time (sec): 3.000000E1
Scans to average: 1
Electric dark correction enabled: true
Nonlinearity correction enabled: false
Boxcar width: 5
XAxis mode: Raman Shifts
Number of Pixels in Spectrum: 1044
>>>>>Begin Spectral Data<<<<<
160.701	183.08
184.826	534.85
208.845	919.11
232.758	1240.84
256.565	1342.02
280.267	1438.57
303.865	1529.39
327.359	1607.66
350.751	1710.39
374.04	1829.75
397.228	2153.57
420.315	2214.48
443.302	2149.2
466.189	1784.84
488.978	1567.2
511.668	1254.39
534.261	923.66
556.756	744.02
579.155	692.11
601.459	668.93
623.667	714.39
645.781	714.3
667.8	673.2
689.726	542.57
711.56	512.39
733.301	530.75
754.951	552.39
776.509	590.57
797.977	591.75
819.355	577.3
840.644	522.48
861.844	464.3
882.955	415.84
903.979	390.11
924.916	379.48
945.766	372.84
966.529	364.02
987.208	357.3
1007.801	362.11
1028.309	377.02
1048.734	389.39
1069.075	390.57
1089.333	380.48
1109.509	358.3
1129.602	338.57
1149.614	333.2
1169.545	338.84
1189.395	342.93
1209.165	343.2
1228.856	341.3
1248.467	326.3
1268	307.3
1287.455	298.48
1306.832	300.57
1326.132	299.57
1345.354	293.3
1364.501	284.11
1383.572	273.39
1402.567	261.57
1421.487	257.2
1440.333	263.66
1459.104	269.48
1477.802	271.3
1496.426	274.39
1514.978	274.2
1533.457	274.84
1551.864	277.39
1570.199	269.3
1588.464	245.75
1606.657	231.66
1624.78	227.02
1642.834	228.48
1660.817	234.02
1678.732	236.2
1696.577	229.93
1714.355	218.66
1732.064	200.57
1749.705	186.3
1767.28	178.48
1784.787	178.57
1802.228	173.84
1819.603	161.48
1836.913	148.57
1854.156	143.02
1871.335	141.57
1888.449	145.11
1905.499	146.93
1922.485	149.84
1939.408	148.2
1956.267	139.84
1973.063	125.02
1989.797	114.57
2006.469	107.84
2023.078	103.39
2039.627	98.39
2056.114	97.11
2072.54	100.48
2088.906	100.84
2105.211	97.3
2121.457	90.93
2137.643	85.93
2153.77	77.66
2169.838	70.75
2185.848	64.02
2201.799	60.75
2217.693	59.11
2233.529	57.11
2249.307	54.75
2265.029	51.84
2280.694	49.11
2296.302	46.57
2311.854	58.39
2327.351	74.2
2342.792	67.66
2358.178	34.93
2373.508	23.3
2388.785	21.11
2404.007	18.11
2419.174	16.75
2434.289	16.57
2449.349	15.2
2464.356	13.2
2479.311	9.48
2494.213	6.57
2509.062	5.48
2523.859	4.84
2538.605	4.39
2553.299	4.57
2567.941	2.93
2582.533	0.39
2597.073	-2.34
2611.564	-5.07
2626.004	-8.98
2640.394	-12.34
2654.734	-14.16
2669.025	-15.16
2683.266	-16.25
2697.458	-18.89
2711.602	-19.8
2725.697	-19.98
2739.744	-18.7
2753.743	-19.61
2767.695	-22.43
2781.598	-24.34
2795.455	-26.89
2809.264	-26.61
2823.026	-27.25
2836.742	-27.7
2850.412	-30.61
2864.035	-30.61
2877.613	-31.43
2891.145	-33.8
2904.631	-37.34
2918.073	-39.89
2931.469	-40.7
2944.821	-42.07
2958.128	-40.52
2971.39	-41.7
2984.609	-43.07
2997.784	-44.8
3010.915	-46.25
3024.002	-47.61
3037.046	-50.25
3050.048	-49.43
3063.006	-49.43
3075.922	-50.34
3088.795	-52.61
3101.627	-55.7
3114.416	-56.07
3127.163	-56.52
3139.869	-56.25
3152.533	-57.25
3165.157	-56.34
3177.739	-55.8
3190.28	-55.8
3202.781	-56.43
3215.241	-57.98
3227.661	-59.89
3240.041	-62.07
3252.382	-63.98
3264.682	-65.43
3276.943	-64.07
3289.165	-62.98
3301.348	-61.8
3313.492	-61.7
3325.597	-63.25
3337.663	-63.61
3349.691	-65.8
3361.681	-67.25
3373.633	-68.16
3385.547	-67.61
3397.424	-66.25
3409.263	-66.52
3421.065	-65.89
3432.829	-65.61
3444.557	-65.43
3456.247	-65.43
3467.902	-65.98
3479.519	-67.61
3491.101	-68.8
3502.646	-69.52
3514.155	-69.07
3525.629	-68.16
3537.067	-66.52
3548.469	-65.89
3559.837	-66.8
3571.169	-68.52
3582.466	-68.98
3593.728	-70.25
3604.956	-71.61
3616.149	-71.16
3627.307	-71.25
3638.432	-70.43
3649.523	-70.34
3660.579	-70.7
3671.602	-71.98
3682.591	-73.52
3693.547	-72.89
3704.47	-73.07
3715.359	-73.7
3726.216	-74.52
3737.039	-73.8
3747.83	-73.43
3758.589	-72.43
3769.315	-72.89
3780.008	-77.25
3790.67	-76.89
3801.299	-74.98
3811.897	-72.43
3822.463	-72.8
3832.998	-73.25
3843.501	-72.34
3853.973	-70.8
3864.414	-56.8
3874.823	2.48
3885.202	16.39
3895.55	-6.7
3905.868	-63.8
3916.155	-71.89
3926.411	-73.16
3936.638	-73.52
3946.834	-72.98
3957	-71.34
3967.137	-70.8
3977.244	-72.34
3987.321	-72.43
3997.369	-71.25
4007.388	-71.07
4017.377	-71.25
4027.338	-72.43
4037.269	-74.07
4047.172	-72.89
4057.046	-71.89
4066.891	-70.8
4076.708	-72.43
4086.497	-73.52
4096.257	-48.07
4105.989	-2.34
4115.694	-3.16
4125.37	-40.98
4135.019	-75.81
4142.237	-74.42