File: Data/Raman/2017-08-24 - Glass, alluminum 108/Aluminum II [full set]/Alu-BS-control 30s,I=1, BC=3, 1sta _RamanShift_3.txt
Data from Alu-BS-control 30s,I=1, BC=3, 1sta _RamanShift_3.txt Node

Date: Thu Aug 24 13:44:21 IDT 2017
User: aro
Spectrometer: QEPB0276
Trigger mode: 0
Integration Time (sec): 3.000000E1
Scans to average: 1
Electric dark correction enabled: true
Nonlinearity correction enabled: false
Boxcar width: 5
XAxis mode: Raman Shifts
Number of Pixels in Spectrum: 1044
>>>>>Begin Spectral Data<<<<<
160.701	178.96
184.826	526.52
208.845	903.67
232.758	1222.31
256.565	1319.31
280.267	1414.58
303.865	1500.67
327.359	1573.12
350.751	1670.76
374.04	1785.49
397.228	2097.12
420.315	2156.94
443.302	2091.94
466.189	1739.12
488.978	1526.76
511.668	1230.4
534.261	918.49
556.756	751.12
579.155	703.76
601.459	680.67
623.667	725.03
645.781	719.22
667.8	678.22
689.726	549.49
711.56	519.85
733.301	541.49
754.951	568.76
776.509	600.94
797.977	603.76
819.355	591.03
840.644	536.94
861.844	476.76
882.955	428.94
903.979	405.94
924.916	395.31
945.766	389.22
966.529	379.94
987.208	372.31
1007.801	378.22
1028.309	393.85
1048.734	401.31
1069.075	402.03
1089.333	390.58
1109.509	374.22
1129.602	358.31
1149.614	354.67
1169.545	357.03
1189.395	358.12
1209.165	358.4
1228.856	356.76
1248.467	342.67
1268	322.4
1287.455	312.22
1306.832	315.85
1326.132	314.49
1345.354	305.67
1364.501	293.12
1383.572	282.22
1402.567	270.67
1421.487	267.12
1440.333	273.94
1459.104	279.12
1477.802	280.4
1496.426	280.94
1514.978	279.49
1533.457	279.85
1551.864	277.85
1570.199	270.12
1588.464	248.31
1606.657	235.31
1624.78	228.58
1642.834	229.85
1660.817	233.85
1678.732	234.03
1696.577	224.67
1714.355	212.49
1732.064	196.22
1749.705	184.58
1767.28	174.22
1784.787	170.67
1802.228	163.58
1819.603	151.76
1836.913	143.4
1854.156	140.58
1871.335	140.85
1888.449	141.58
1905.499	141.67
1922.485	141.4
1939.408	136.49
1956.267	126.94
1973.063	114.49
1989.797	105.58
2006.469	103.03
2023.078	100.58
2039.627	96.22
2056.114	94.85
2072.54	96.67
2088.906	95.58
2105.211	89.22
2121.457	82.76
2137.643	76.67
2153.77	71.12
2169.838	64.31
2185.848	60.13
2201.799	56.76
2217.693	55.67
2233.529	53.58
2249.307	52.31
2265.029	46.67
2280.694	44.31
2296.302	42.4
2311.854	56.85
2327.351	72.67
2342.792	68.76
2358.178	37.76
2373.508	27.67
2388.785	26.13
2404.007	22.13
2419.174	18.94
2434.289	16.76
2449.349	16.49
2464.356	14.76
2479.311	12.12
2494.213	10.49
2509.062	9.76
2523.859	7.94
2538.605	5.76
2553.299	3.58
2567.941	2.22
2582.533	-0.06
2597.073	-0.24
2611.564	-1.6
2626.004	-4.69
2640.394	-9.33
2654.734	-13.97
2669.025	-16.15
2683.266	-17.15
2697.458	-15.69
2711.602	-15.87
2725.697	-14.15
2739.744	-14.15
2753.743	-16.51
2767.695	-21.06
2781.598	-25.51
2795.455	-26.6
2809.264	-26.88
2823.026	-26.51
2836.742	-25.42
2850.412	-24.69
2864.035	-23.97
2877.613	-27.6
2891.145	-34.15
2904.631	-38.78
2918.073	-40.51
2931.469	-38.97
2944.821	-40.33
2958.128	-39.42
2971.39	-39.24
2984.609	-38.88
2997.784	-40.6
3010.915	-44.24
3024.002	-48.42
3037.046	-50.78
3050.048	-49.88
3063.006	-47.97
3075.922	-48.69
3088.795	-48.97
3101.627	-50.6
3114.416	-51.97
3127.163	-53.24
3139.869	-54.33
3152.533	-55.06
3165.157	-55.78
3177.739	-57.06
3190.28	-57.24
3202.781	-55.78
3215.241	-55.6
3227.661	-56.88
3240.041	-59.78
3252.382	-60.78
3264.682	-63.33
3276.943	-63.51
3289.165	-63.06
3301.348	-63.15
3313.492	-61.88
3325.597	-61.06
3337.663	-61.78
3349.691	-63.06
3361.681	-64.88
3373.633	-66.42
3385.547	-66.15
3397.424	-65.69
3409.263	-66.69
3421.065	-66.88
3432.829	-64.88
3444.557	-63.6
3456.247	-62.15
3467.902	-62.51
3479.519	-64.78
3491.101	-66.69
3502.646	-68.15
3514.155	-68.97
3525.629	-69.88
3537.067	-69.06
3548.469	-68.88
3559.837	-67.97
3571.169	-67.51
3582.466	-67.15
3593.728	-69.33
3604.956	-69.88
3616.149	-70.78
3627.307	-71.06
3638.432	-71.06
3649.523	-71.15
3660.579	-70.6
3671.602	-70.78
3682.591	-70.42
3693.547	-69.78
3704.47	-70.6
3715.359	-71.69
3726.216	-74.24
3737.039	-74.42
3747.83	-74.51
3758.589	-72.88
3769.315	-72.78
3780.008	-75.06
3790.67	-74.88
3801.299	-73.6
3811.897	-72.06
3822.463	-73.78
3832.998	-73.42
3843.501	-72.24
3853.973	-69.88
3864.414	-57.51
3874.823	-0.42
3885.202	12.22
3895.55	-8.51
3905.868	-63.69
3916.155	-71.42
3926.411	-71.97
3936.638	-72.42
3946.834	-71.33
3957	-69.69
3967.137	-69.15
3977.244	-71.15
3987.321	-71.88
3997.369	-72.06
4007.388	-72.33
4017.377	-72.51
4027.338	-73.51
4037.269	-72.88
4047.172	-71.15
4057.046	-69.78
4066.891	-71.06
4076.708	-72.24
4086.497	-73.42
4096.257	-46.06
4105.989	0.94
4115.694	0.67
4125.37	-37.69
4135.019	-72.76
4142.237	-71.88