File: Data/Raman/2017-08-24 - Glass, alluminum 108/Aluminum II [full set]/Alu-BS-BLANK 30s,I=1, BC=3, 1sta _RamanShift_3.txt
Data from Alu-BS-BLANK 30s,I=1, BC=3, 1sta _RamanShift_3.txt Node

Date: Thu Aug 24 13:41:21 IDT 2017
User: aro
Spectrometer: QEPB0276
Trigger mode: 0
Integration Time (sec): 3.000000E1
Scans to average: 1
Electric dark correction enabled: true
Nonlinearity correction enabled: false
Boxcar width: 5
XAxis mode: Raman Shifts
Number of Pixels in Spectrum: 1044
>>>>>Begin Spectral Data<<<<<
160.701	183.54
184.826	559.77
208.845	969.24
232.758	1306.88
256.565	1410.88
280.267	1517.15
303.865	1617.24
327.359	1705.06
350.751	1815.06
374.04	1948.97
397.228	2294.6
420.315	2363.42
443.302	2292.69
466.189	1904.33
488.978	1664.88
511.668	1324.15
534.261	964.6
556.756	769.78
579.155	712.88
601.459	686.6
623.667	732.42
645.781	728.15
667.8	684.6
689.726	546.51
711.56	512.42
733.301	535.78
754.951	565.51
776.509	606.51
797.977	614.06
819.355	602.88
840.644	547.06
861.844	478.24
882.955	425.42
903.979	397.15
924.916	387.06
945.766	380.06
966.529	372.97
987.208	367.78
1007.801	375.42
1028.309	390.97
1048.734	405.97
1069.075	407.6
1089.333	397.15
1109.509	374.78
1129.602	354.51
1149.614	350.33
1169.545	356.88
1189.395	361.06
1209.165	363.6
1228.856	361.24
1248.467	345.6
1268	323.33
1287.455	312.15
1306.832	316.97
1326.132	317.51
1345.354	308.78
1364.501	297.15
1383.572	284.42
1402.567	275.06
1421.487	272.69
1440.333	280.24
1459.104	284.6
1477.802	287.88
1496.426	286.88
1514.978	286.42
1533.457	284.6
1551.864	284.15
1570.199	275.6
1588.464	252.97
1606.657	243.51
1624.78	238.06
1642.834	240.69
1660.817	245.33
1678.732	249.06
1696.577	243.24
1714.355	230.33
1732.064	211.69
1749.705	198.15
1767.28	191.42
1784.787	188.69
1802.228	183.97
1819.603	170.24
1836.913	160.88
1854.156	155.33
1871.335	155.78
1888.449	157.6
1905.499	160.88
1922.485	162.97
1939.408	160.97
1956.267	149.15
1973.063	135.42
1989.797	125.78
2006.469	121.69
2023.078	117.06
2039.627	111.88
2056.114	113.33
2072.54	116.42
2088.906	117.97
2105.211	109.51
2121.457	100.78
2137.643	94.97
2153.77	90.6
2169.838	83.88
2185.848	78.33
2201.799	74.51
2217.693	72.97
2233.529	71.78
2249.307	67.69
2265.029	63.69
2280.694	62.33
2296.302	61.6
2311.854	74.88
2327.351	91.15
2342.792	86.69
2358.178	55.15
2373.508	42.88
2388.785	40.33
2404.007	36.42
2419.174	33.33
2434.289	30.97
2449.349	32.51
2464.356	30.15
2479.311	28.6
2494.213	25.97
2509.062	25.78
2523.859	23.06
2538.605	20.15
2553.299	19.33
2567.941	19.88
2582.533	18.33
2597.073	16.6
2611.564	14.15
2626.004	10.42
2640.394	4.97
2654.734	1.42
2669.025	-0.94
2683.266	-2.03
2697.458	-3.31
2711.602	-2.4
2725.697	-1.03
2739.744	0.42
2753.743	-1.31
2767.695	-6.67
2781.598	-10.58
2795.455	-12.22
2809.264	-12.12
2823.026	-11.12
2836.742	-9.94
2850.412	-10.4
2864.035	-11.67
2877.613	-13.31
2891.145	-18.94
2904.631	-23.49
2918.073	-26.85
2931.469	-26.49
2944.821	-26.58
2958.128	-24.85
2971.39	-24.67
2984.609	-25.03
2997.784	-28.85
3010.915	-32.22
3024.002	-35.76
3037.046	-37.03
3050.048	-37.12
3063.006	-35.67
3075.922	-34.31
3088.795	-34.03
3101.627	-36.31
3114.416	-37.49
3127.163	-39.22
3139.869	-40.31
3152.533	-41.85
3165.157	-42.58
3177.739	-43.85
3190.28	-43.12
3202.781	-43.58
3215.241	-43.03
3227.661	-44.85
3240.041	-46.76
3252.382	-48.03
3264.682	-48.85
3276.943	-48.67
3289.165	-48.67
3301.348	-49.49
3313.492	-49.76
3325.597	-50.03
3337.663	-50.03
3349.691	-50.58
3361.681	-52.12
3373.633	-54.31
3385.547	-53.76
3397.424	-41.31
3409.263	-41.12
3421.065	-43.22
3432.829	-53.49
3444.557	-52.03
3456.247	-50.76
3467.902	-49.76
3479.519	-51.58
3491.101	-53.12
3502.646	-55.03
3514.155	-55.22
3525.629	-55.58
3537.067	-56.12
3548.469	-56.58
3559.837	-56.49
3571.169	-55.03
3582.466	-54.94
3593.728	-55.4
3604.956	-56.12
3616.149	-57.12
3627.307	-58.22
3638.432	-58.76
3649.523	-60.58
3660.579	-60.49
3671.602	-59.67
3682.591	-57.22
3693.547	-56.31
3704.47	-55.94
3715.359	-57.31
3726.216	-59.4
3737.039	-61.4
3747.83	-60.94
3758.589	-59.49
3769.315	-59.03
3780.008	-61.49
3790.67	-61.03
3801.299	-58.76
3811.897	-56.85
3822.463	-58.76
3832.998	-61.85
3843.501	-62.58
3853.973	-60.94
3864.414	-50.49
3874.823	-11.31
3885.202	-0.58
3895.55	-12.94
3905.868	-51.22
3916.155	-58.49
3926.411	-60.67
3936.638	-61.03
3946.834	-60.31
3957	-56.67
3967.137	-55.58
3977.244	-56.22
3987.321	-55.76
3997.369	-56.31
4007.388	-58.4
4017.377	-60.12
4027.338	-61.67
4037.269	-60.85
4047.172	-58.4
4057.046	-55.94
4066.891	-55.85
4076.708	-57.12
4086.497	-58.67
4096.257	-40.12
4105.989	-6.76
4115.694	-8.4
4125.37	-36.12
4135.019	-62.12
4142.237	-60.62