File: Data/Raman/2017-08-24 - Glass, alluminum 108/Aluminum II [full set]/Alu-EC108 30s,I=1, BC=3, 1sta _RamanShift_2.txt
Data from Alu-EC108 30s,I=1, BC=3, 1sta _RamanShift_2.txt Node

Date: Thu Aug 24 13:37:51 IDT 2017
User: aro
Spectrometer: QEPB0276
Trigger mode: 0
Integration Time (sec): 3.000000E1
Scans to average: 1
Electric dark correction enabled: true
Nonlinearity correction enabled: false
Boxcar width: 5
XAxis mode: Raman Shifts
Number of Pixels in Spectrum: 1044
>>>>>Begin Spectral Data<<<<<
160.701	229.67
184.826	753.8
208.845	1337.41
232.758	1832.95
256.565	1978.5
280.267	2097.14
303.865	2195.23
327.359	2271.95
350.751	2351.32
374.04	2448.23
397.228	2729.86
420.315	2785.68
443.302	2720.59
466.189	2385.95
488.978	2184.95
511.668	1905.77
534.261	1603.77
556.756	1440.32
579.155	1386.23
601.459	1352.32
623.667	1377.95
645.781	1366.5
667.8	1317.05
689.726	1193.32
711.56	1150.77
733.301	1161.41
754.951	1176.05
776.509	1205.41
797.977	1202.23
819.355	1180.05
840.644	1126.14
861.844	1067.68
882.955	1011.32
903.979	975.77
924.916	960.59
945.766	951.59
966.529	931.05
987.208	913.23
1007.801	913.95
1028.309	927.59
1048.734	924.59
1069.075	914.68
1089.333	898.32
1109.509	873.32
1129.602	843.86
1149.614	828.86
1169.545	826.23
1189.395	821.5
1209.165	816.23
1228.856	813.77
1248.467	789.41
1268	749.68
1287.455	730.41
1306.832	732.32
1326.132	727.77
1345.354	698.77
1364.501	662.77
1383.572	634.14
1402.567	617.41
1421.487	610.59
1440.333	619.59
1459.104	621.95
1477.802	615.5
1496.426	605.23
1514.978	594.59
1533.457	580.95
1551.864	568.95
1570.199	551.14
1588.464	527.95
1606.657	510.5
1624.78	499.05
1642.834	498.59
1660.817	503.41
1678.732	499.95
1696.577	479.68
1714.355	455.23
1732.064	427.41
1749.705	405.14
1767.28	391.5
1784.787	384.23
1802.228	369.95
1819.603	349.41
1836.913	334.05
1854.156	331.23
1871.335	331.68
1888.449	333.05
1905.499	333.95
1922.485	332.05
1939.408	324.23
1956.267	305.23
1973.063	281.86
1989.797	264.14
2006.469	255.86
2023.078	246.32
2039.627	237.32
2056.114	233.14
2072.54	235.23
2088.906	235.77
2105.211	228.32
2121.457	218.05
2137.643	206.5
2153.77	194.59
2169.838	182.41
2185.848	171.59
2201.799	164.95
2217.693	163.05
2233.529	160.95
2249.307	155.14
2265.029	145.59
2280.694	138.32
2296.302	134.32
2311.854	142.41
2327.351	155.5
2342.792	147.41
2358.178	118.14
2373.508	106.14
2388.785	104.41
2404.007	100.77
2419.174	98.23
2434.289	96.86
2449.349	94.77
2464.356	89.59
2479.311	84.86
2494.213	82.86
2509.062	79.59
2523.859	77.05
2538.605	73.5
2553.299	72.05
2567.941	69.23
2582.533	65.23
2597.073	60.05
2611.564	55.23
2626.004	49.5
2640.394	43.68
2654.734	38.59
2669.025	36.05
2683.266	33.05
2697.458	29.05
2711.602	24.5
2725.697	22.41
2739.744	21.41
2753.743	18.59
2767.695	15.05
2781.598	12.14
2795.455	10.41
2809.264	9.68
2823.026	9.95
2836.742	10.05
2850.412	8.05
2864.035	7.23
2877.613	2.32
2891.145	-3.41
2904.631	-8.68
2918.073	-11.59
2931.469	-12.23
2944.821	-12.95
2958.128	-13.5
2971.39	-14.77
2984.609	-18.14
2997.784	-20.95
3010.915	-24.86
3024.002	-27.14
3037.046	-30.41
3050.048	-29.77
3063.006	-29.77
3075.922	-30.23
3088.795	-30.23
3101.627	-33.41
3114.416	-34.77
3127.163	-37.41
3139.869	-38.32
3152.533	-39.41
3165.157	-40.32
3177.739	-41.77
3190.28	-42.59
3202.781	-42.95
3215.241	-42.59
3227.661	-44.23
3240.041	-47.23
3252.382	-49.32
3264.682	-51.59
3276.943	-52.86
3289.165	-52.68
3301.348	-53.23
3313.492	-50.77
3325.597	-50.5
3337.663	-50.5
3349.691	-52.59
3361.681	-54.5
3373.633	-56.77
3385.547	-57.5
3397.424	-58.05
3409.263	-58.77
3421.065	-58.59
3432.829	-56.68
3444.557	-55.32
3456.247	-53.59
3467.902	-54.32
3479.519	-56.05
3491.101	-57.77
3502.646	-58.95
3514.155	-61.14
3525.629	-61.59
3537.067	-61.05
3548.469	-59.5
3559.837	-58.05
3571.169	-58.14
3582.466	-59.32
3593.728	-60.68
3604.956	-62.5
3616.149	-63.41
3627.307	-64.68
3638.432	-63.41
3649.523	-62.5
3660.579	-62.05
3671.602	-61.77
3682.591	-61.95
3693.547	-61.41
3704.47	-62.41
3715.359	-63.95
3726.216	-66.05
3737.039	-65.41
3747.83	-63.41
3758.589	-60.86
3769.315	-61.68
3780.008	-65.59
3790.67	-66.41
3801.299	-64.68
3811.897	-62.86
3822.463	-64.41
3832.998	-66.77
3843.501	-65.86
3853.973	-63.86
3864.414	-53.05
3874.823	-19.77
3885.202	-12.41
3895.55	-26.77
3905.868	-58.59
3916.155	-63.77
3926.411	-63.77
3936.638	-63.23
3946.834	-64.05
3957	-62.86
3967.137	-61.59
3977.244	-61.32
3987.321	-62.59
3997.369	-62.95
4007.388	-63.86
4017.377	-64.23
4027.338	-64.59
4037.269	-63.05
4047.172	-59.5
4057.046	-58.14
4066.891	-59.5
4076.708	-61.95
4086.497	-64.95
4096.257	-47.95
4105.989	-16.59
4115.694	-17.14
4125.37	-41.68
4135.019	-66.17
4142.237	-64.83