File: Data/Raman/2017-08-24 - Glass, alluminum 108/Aluminum II [full set]/Alu-BS-107 30s,I=1, BC=3, 1sta _RamanShift_3.txt
Data from Alu-BS-107 30s,I=1, BC=3, 1sta _RamanShift_3.txt Node

Date: Thu Aug 24 13:49:21 IDT 2017
User: aro
Spectrometer: QEPB0276
Trigger mode: 0
Integration Time (sec): 3.000000E1
Scans to average: 1
Electric dark correction enabled: true
Nonlinearity correction enabled: false
Boxcar width: 5
XAxis mode: Raman Shifts
Number of Pixels in Spectrum: 1044
>>>>>Begin Spectral Data<<<<<
160.701	198.96
184.826	585.42
208.845	1007.49
232.758	1368.76
256.565	1477.22
280.267	1580.03
303.865	1670.03
327.359	1748.22
350.751	1841.12
374.04	1948.4
397.228	2248.31
420.315	2303.58
443.302	2235.4
466.189	1891.31
488.978	1686.67
511.668	1394.31
534.261	1082.85
556.756	919.31
579.155	870.22
601.459	845.85
623.667	880.67
645.781	871.03
667.8	827.67
689.726	702.49
711.56	673.76
733.301	694.85
754.951	716.85
776.509	749.03
797.977	746.94
819.355	732.22
840.644	679.22
861.844	621.12
882.955	574.12
903.979	546.76
924.916	535.85
945.766	528.76
966.529	517.85
987.208	507.85
1007.801	511.67
1028.309	527.94
1048.734	536.4
1069.075	533.58
1089.333	515.85
1109.509	493.03
1129.602	475.67
1149.614	472.31
1169.545	474.67
1189.395	475.03
1209.165	474.94
1228.856	471.76
1248.467	454.67
1268	430.4
1287.455	418.31
1306.832	418.67
1326.132	415.49
1345.354	403.76
1364.501	386.12
1383.572	371.31
1402.567	357.94
1421.487	352.4
1440.333	358.94
1459.104	363.94
1477.802	361.03
1496.426	357.22
1514.978	353.49
1533.457	349.03
1551.864	349.76
1570.199	343.03
1588.464	320.85
1606.657	305.22
1624.78	296.58
1642.834	295.22
1660.817	298.4
1678.732	294.4
1696.577	283.85
1714.355	267.4
1732.064	248.03
1749.705	232.67
1767.28	220.12
1784.787	213.94
1802.228	205.31
1819.603	192.85
1836.913	183.31
1854.156	181.94
1871.335	183.58
1888.449	183.76
1905.499	183.49
1922.485	181.67
1939.408	176.49
1956.267	164.58
1973.063	151.03
1989.797	139.67
2006.469	136.12
2023.078	132.4
2039.627	125.94
2056.114	123.76
2072.54	124.94
2088.906	122.76
2105.211	116.94
2121.457	110.03
2137.643	104.67
2153.77	99.12
2169.838	91.94
2185.848	85.31
2201.799	80.49
2217.693	77.94
2233.529	76.22
2249.307	72.22
2265.029	68.03
2280.694	65.67
2296.302	62.4
2311.854	74.31
2327.351	90.67
2342.792	85.85
2358.178	53.85
2373.508	42.76
2388.785	40.12
2404.007	37.12
2419.174	33.94
2434.289	31.67
2449.349	31.4
2464.356	29.31
2479.311	27.4
2494.213	25.4
2509.062	24.31
2523.859	21.49
2538.605	18.76
2553.299	16.4
2567.941	14.4
2582.533	11.67
2597.073	11.31
2611.564	9.31
2626.004	6.85
2640.394	1.4
2654.734	-1.06
2669.025	-3.78
2683.266	-6.6
2697.458	-11.06
2711.602	-13.15
2725.697	-12.97
2739.744	-11.97
2753.743	-12.33
2767.695	-15.78
2781.598	-18.78
2795.455	-20.88
2809.264	-21.42
2823.026	-21.97
2836.742	-22.88
2850.412	-23.88
2864.035	-25.33
2877.613	-26.97
2891.145	-31.88
2904.631	-34.97
2918.073	-37.69
2931.469	-37.88
2944.821	-39.42
2958.128	-40.15
2971.39	-42.6
2984.609	-43.42
2997.784	-43.42
3010.915	-44.6
3024.002	-46.33
3037.046	-48.78
3050.048	-49.6
3063.006	-50.33
3075.922	-52.51
3088.795	-53.42
3101.627	-55.6
3114.416	-56.06
3127.163	-56.97
3139.869	-57.42
3152.533	-57.51
3165.157	-57.78
3177.739	-58.24
3190.28	-59.24
3202.781	-59.78
3215.241	-61.24
3227.661	-62.88
3240.041	-63.15
3252.382	-63.42
3264.682	-64.06
3276.943	-64.78
3289.165	-66.78
3301.348	-68.06
3313.492	-68.6
3325.597	-68.15
3337.663	-67.88
3349.691	-66.78
3361.681	-68.42
3373.633	-69.24
3385.547	-69.51
3397.424	-69.24
3409.263	-69.69
3421.065	-69.6
3432.829	-68.42
3444.557	-68.51
3456.247	-66.78
3467.902	-66.69
3479.519	-67.88
3491.101	-71.6
3502.646	-72.24
3514.155	-73.42
3525.629	-73.33
3537.067	-72.06
3548.469	-71.33
3559.837	-71.24
3571.169	-71.33
3582.466	-71.24
3593.728	-74.15
3604.956	-75.42
3616.149	-75.88
3627.307	-76.15
3638.432	-75.33
3649.523	-76.97
3660.579	-76.78
3671.602	-76.88
3682.591	-75.97
3693.547	-75.33
3704.47	-75.88
3715.359	-77.78
3726.216	-79.51
3737.039	-80.69
3747.83	-81.06
3758.589	-80.33
3769.315	-77.97
3780.008	-81.06
3790.67	-80.24
3801.299	-77.69
3811.897	-75.6
3822.463	-77.78
3832.998	-79.51
3843.501	-78.69
3853.973	-77.6
3864.414	-62.97
3874.823	-1.06
3885.202	15.4
3895.55	-7.06
3905.868	-65.24
3916.155	-75.6
3926.411	-78.33
3936.638	-79.51
3946.834	-78.88
3957	-77.97
3967.137	-76.69
3977.244	-77.78
3987.321	-76.24
3997.369	-76.15
4007.388	-76.51
4017.377	-76.78
4027.338	-78.33
4037.269	-78.24
4047.172	-77.6
4057.046	-76.42
4066.891	-75.97
4076.708	-76.6
4086.497	-78.06
4096.257	-50.51
4105.989	-0.78
4115.694	-0.78
4125.37	-42.6
4135.019	-79.54
4142.237	-78.88