File: Data/Raman/2017-08-24 - Glass, alluminum 108/Aluminum II [full set]/Alu-EC1-2 30s,I=1, BC=3, 1sta _RamanShift_3.txt
Data from Alu-EC1-2 30s,I=1, BC=3, 1sta _RamanShift_3.txt Node

Date: Thu Aug 24 13:33:51 IDT 2017
User: aro
Spectrometer: QEPB0276
Trigger mode: 0
Integration Time (sec): 3.000000E1
Scans to average: 1
Electric dark correction enabled: true
Nonlinearity correction enabled: false
Boxcar width: 5
XAxis mode: Raman Shifts
Number of Pixels in Spectrum: 1044
>>>>>Begin Spectral Data<<<<<
160.701	229.08
184.826	705.15
208.845	1230.2
232.758	1667.2
256.565	1792.75
280.267	1902.3
303.865	1998.93
327.359	2077.2
350.751	2178.75
374.04	2295.66
397.228	2621.75
420.315	2677.11
443.302	2600.02
466.189	2215.93
488.978	1985.57
511.668	1664.84
534.261	1320.02
556.756	1130.93
579.155	1068.3
601.459	1040.11
623.667	1084.39
645.781	1079.02
667.8	1031.2
689.726	891.48
711.56	852.11
733.301	862.57
754.951	880.48
776.509	914.2
797.977	917.84
819.355	904.66
840.644	846.66
861.844	784.3
882.955	727.02
903.979	694.93
924.916	681.3
945.766	672.2
966.529	655.66
987.208	643.2
1007.801	653.3
1028.309	671.75
1048.734	678.93
1069.075	673.11
1089.333	659.66
1109.509	633.57
1129.602	607.02
1149.614	597.3
1169.545	599.66
1189.395	599.75
1209.165	598.11
1228.856	593.48
1248.467	572.75
1268	542.3
1287.455	527.39
1306.832	530.11
1326.132	520.84
1345.354	491.3
1364.501	463.75
1383.572	447.84
1402.567	439.39
1421.487	438.84
1440.333	447.66
1459.104	448.84
1477.802	431.3
1496.426	410.3
1514.978	396.2
1533.457	396.48
1551.864	403.39
1570.199	401.48
1588.464	384.02
1606.657	368.75
1624.78	356.3
1642.834	353.66
1660.817	352.39
1678.732	337.93
1696.577	311.39
1714.355	286.48
1732.064	271.66
1749.705	261.84
1767.28	249.02
1784.787	235.75
1802.228	222.3
1819.603	211.66
1836.913	205.75
1854.156	204.84
1871.335	202.75
1888.449	200.84
1905.499	193.11
1922.485	185.02
1939.408	173.75
1956.267	164.11
1973.063	154.57
1989.797	150.93
2006.469	149.93
2023.078	144.75
2039.627	136.2
2056.114	131.84
2072.54	130.66
2088.906	127.66
2105.211	119.57
2121.457	112.48
2137.643	108.02
2153.77	102.48
2169.838	96.48
2185.848	91.2
2201.799	88.02
2217.693	86.48
2233.529	85.84
2249.307	83.39
2265.029	79.11
2280.694	76.2
2296.302	73.84
2311.854	85.75
2327.351	102.39
2342.792	98.3
2358.178	67.48
2373.508	57.93
2388.785	58.02
2404.007	56.75
2419.174	53.75
2434.289	50.75
2449.349	49.11
2464.356	44.93
2479.311	38.66
2494.213	35.66
2509.062	33.48
2523.859	29.57
2538.605	24.66
2553.299	22.57
2567.941	20.93
2582.533	18.3
2597.073	15.66
2611.564	13.11
2626.004	9.66
2640.394	5.84
2654.734	2.66
2669.025	0.3
2683.266	-1.34
2697.458	-2.43
2711.602	-4.61
2725.697	-6.16
2739.744	-7.34
2753.743	-11.61
2767.695	-15.89
2781.598	-19.25
2795.455	-19.7
2809.264	-19.25
2823.026	-18.98
2836.742	-20.34
2850.412	-21.07
2864.035	-19.8
2877.613	-23.25
2891.145	-28.43
2904.631	-33.61
2918.073	-34.8
2931.469	-35.16
2944.821	-35.25
2958.128	-35.7
2971.39	-37.25
2984.609	-39.16
2997.784	-42.7
3010.915	-45.8
3024.002	-46.43
3037.046	-47.89
3050.048	-46.43
3063.006	-47.34
3075.922	-47.8
3088.795	-49.34
3101.627	-52.7
3114.416	-54.07
3127.163	-56.16
3139.869	-56.16
3152.533	-56.7
3165.157	-55.8
3177.739	-55.25
3190.28	-55.8
3202.781	-56.89
3215.241	-58.89
3227.661	-60.43
3240.041	-63.61
3252.382	-64.43
3264.682	-65.8
3276.943	-63.7
3289.165	-62.16
3301.348	-62.07
3313.492	-61.43
3325.597	-62.98
3337.663	-63.52
3349.691	-65.07
3361.681	-67.7
3373.633	-69.25
3385.547	-69.89
3397.424	-69.07
3409.263	-69.52
3421.065	-68.7
3432.829	-67.8
3444.557	-67.43
3456.247	-66.7
3467.902	-66.98
3479.519	-68.89
3491.101	-71.07
3502.646	-70.8
3514.155	-70.61
3525.629	-70.07
3537.067	-68.25
3548.469	-67.7
3559.837	-68.89
3571.169	-69.52
3582.466	-68.98
3593.728	-70.07
3604.956	-71.98
3616.149	-73.34
3627.307	-73.98
3638.432	-72.89
3649.523	-72.98
3660.579	-72.43
3671.602	-73.52
3682.591	-74.16
3693.547	-73.8
3704.47	-73.89
3715.359	-75.25
3726.216	-77.8
3737.039	-77.43
3747.83	-76.34
3758.589	-74.8
3769.315	-73.98
3780.008	-76.98
3790.67	-77.25
3801.299	-76.43
3811.897	-74.98
3822.463	-76.7
3832.998	-78.8
3843.501	-77.52
3853.973	-75.07
3864.414	-59.98
3874.823	-5.07
3885.202	7.75
3895.55	-13.52
3905.868	-65.8
3916.155	-73.7
3926.411	-75.8
3936.638	-75.89
3946.834	-74.8
3957	-72.07
3967.137	-71.07
3977.244	-71.8
3987.321	-73.07
3997.369	-74.16
4007.388	-75.7
4017.377	-76.34
4027.338	-75.89
4037.269	-73.52
4047.172	-71.98
4057.046	-72.16
4066.891	-73.07
4076.708	-74.16
4086.497	-76.16
4096.257	-51.7
4105.989	-7.25
4115.694	-8.8
4125.37	-44.89
4135.019	-78.69
4142.237	-77.08