File: Data/Raman/2017-08-24 - Glass, alluminum 108/Aluminum II [full set]/Alu-EC107 30s,I=1, BC=3, 1sta _RamanShift_1.txt
Data from Alu-EC107 30s,I=1, BC=3, 1sta _RamanShift_1.txt Node

Date: Thu Aug 24 13:34:51 IDT 2017
User: aro
Spectrometer: QEPB0276
Trigger mode: 0
Integration Time (sec): 3.000000E1
Scans to average: 1
Electric dark correction enabled: true
Nonlinearity correction enabled: false
Boxcar width: 5
XAxis mode: Raman Shifts
Number of Pixels in Spectrum: 1044
>>>>>Begin Spectral Data<<<<<
160.701	187.83
184.826	576.9
208.845	1000.82
232.758	1356.27
256.565	1460.64
280.267	1565.73
303.865	1657.45
327.359	1732.09
350.751	1821.18
374.04	1933.27
397.228	2239.64
420.315	2301.55
443.302	2232.64
466.189	1877
488.978	1667
511.668	1377.27
534.261	1073.09
556.756	907.55
579.155	853.45
601.459	827.73
623.667	869.91
645.781	865.45
667.8	824.09
689.726	695.09
711.56	661.18
733.301	676.27
754.951	698.18
776.509	729.91
797.977	729.82
819.355	715.55
840.644	665
861.844	607.09
882.955	561.27
903.979	533.91
924.916	520.45
945.766	513.27
966.529	501.09
987.208	491.09
1007.801	496.64
1028.309	510.45
1048.734	520.55
1069.075	518
1089.333	504.73
1109.509	482.18
1129.602	462.91
1149.614	454.27
1169.545	457.91
1189.395	459.27
1209.165	460.09
1228.856	456.82
1248.467	440.73
1268	416.45
1287.455	405.73
1306.832	406
1326.132	403.55
1345.354	391.45
1364.501	377
1383.572	363.73
1402.567	348.27
1421.487	343.09
1440.333	349.09
1459.104	354
1477.802	350.73
1496.426	349.27
1514.978	347.55
1533.457	348.36
1551.864	348.18
1570.199	339
1588.464	317.64
1606.657	303
1624.78	295.64
1642.834	294.55
1660.817	296.18
1678.732	296.36
1696.577	286.64
1714.355	273.64
1732.064	256.09
1749.705	242.73
1767.28	235
1784.787	229.09
1802.228	221.45
1819.603	207.64
1836.913	196.45
1854.156	191.36
1871.335	192.55
1888.449	194
1905.499	195.82
1922.485	196.55
1939.408	193.82
1956.267	182.91
1973.063	166.73
1989.797	153.45
2006.469	148.27
2023.078	143
2039.627	136.36
2056.114	135.91
2072.54	138.82
2088.906	140.45
2105.211	134.36
2121.457	127.91
2137.643	120.82
2153.77	112.73
2169.838	103.09
2185.848	94.91
2201.799	92.36
2217.693	90.82
2233.529	89.82
2249.307	86.82
2265.029	83.45
2280.694	79.82
2296.302	75.18
2311.854	86.18
2327.351	101.91
2342.792	98.27
2358.178	67.18
2373.508	54.91
2388.785	52.73
2404.007	50.55
2419.174	49.18
2434.289	47.82
2449.349	45
2464.356	42.27
2479.311	38.91
2494.213	37
2509.062	35.09
2523.859	32.45
2538.605	31
2553.299	32.09
2567.941	31.09
2582.533	28.73
2597.073	24.91
2611.564	21.27
2626.004	16.36
2640.394	11.18
2654.734	7.45
2669.025	6
2683.266	4.82
2697.458	4.36
2711.602	2.64
2725.697	2.45
2739.744	1.64
2753.743	-0.18
2767.695	-4.18
2781.598	-7.18
2795.455	-8.82
2809.264	-9.45
2823.026	-7.91
2836.742	-8.91
2850.412	-11.55
2864.035	-12.82
2877.613	-15.27
2891.145	-19.27
2904.631	-23.09
2918.073	-24.64
2931.469	-24
2944.821	-25.82
2958.128	-25
2971.39	-26.27
2984.609	-27.91
2997.784	-29.82
3010.915	-31.18
3024.002	-32.36
3037.046	-35.27
3050.048	-34.91
3063.006	-35.55
3075.922	-36.18
3088.795	-37.55
3101.627	-39.09
3114.416	-40.36
3127.163	-41.09
3139.869	-41.82
3152.533	-43.09
3165.157	-43.73
3177.739	-43.64
3190.28	-44.82
3202.781	-46.64
3215.241	-48.82
3227.661	-49.55
3240.041	-50.18
3252.382	-49.73
3264.682	-50.36
3276.943	-50
3289.165	-49.82
3301.348	-50.82
3313.492	-50.45
3325.597	-50.91
3337.663	-50.73
3349.691	-53.09
3361.681	-55.18
3373.633	-57.18
3385.547	-57.27
3397.424	-55.91
3409.263	-55.45
3421.065	-54.55
3432.829	-53.55
3444.557	-52.73
3456.247	-53.18
3467.902	-54.27
3479.519	-55.91
3491.101	-58.18
3502.646	-58.55
3514.155	-57.64
3525.629	-55.91
3537.067	-54.36
3548.469	-54
3559.837	-55.36
3571.169	-57.45
3582.466	-58.73
3593.728	-61
3604.956	-61.36
3616.149	-61.27
3627.307	-61.82
3638.432	-61.55
3649.523	-61
3660.579	-60.27
3671.602	-60.36
3682.591	-60
3693.547	-60.27
3704.47	-61
3715.359	-63.91
3726.216	-64.09
3737.039	-63
3747.83	-60.09
3758.589	-60
3769.315	-61.27
3780.008	-65.73
3790.67	-65.82
3801.299	-64.09
3811.897	-62
3822.463	-63
3832.998	-64
3843.501	-62
3853.973	-58.82
3864.414	-47.45
3874.823	-5.82
3885.202	2.73
3895.55	-15.09
3905.868	-56.27
3916.155	-62
3926.411	-62.82
3936.638	-61.18
3946.834	-60.27
3957	-58.82
3967.137	-59.64
3977.244	-61.55
3987.321	-61.64
3997.369	-61.55
4007.388	-62.27
4017.377	-61.64
4027.338	-61.73
4037.269	-61.45
4047.172	-60.09
4057.046	-60.55
4066.891	-60.82
4076.708	-62.64
4086.497	-63.45
4096.257	-42.18
4105.989	-4.55
4115.694	-4.45
4125.37	-35.64
4135.019	-64.33
4142.237	-64.67