File: Data/Raman/2017-08-24 - Glass, alluminum 108/Aluminum/alucontrol - 30s - I=1, bc=5_RamanShift_1.txt
Data from alucontrol - 30s - I=1, bc=5_RamanShift_1.txt Node

Date: Thu Aug 24 12:08:43 IDT 2017
User: aro
Spectrometer: QEPB0276
Trigger mode: 0
Integration Time (sec): 3.000000E1
Scans to average: 1
Electric dark correction enabled: true
Nonlinearity correction enabled: false
Boxcar width: 5
XAxis mode: Raman Shifts
Number of Pixels in Spectrum: 1044
>>>>>Begin Spectral Data<<<<<
160.701	183.29
184.826	550.52
208.845	953.22
232.758	1290.76
256.565	1401.49
280.267	1503.94
303.865	1597.67
327.359	1675.94
350.751	1774.22
374.04	1888.76
397.228	2199.31
420.315	2257.58
443.302	2189.94
466.189	1833.85
488.978	1620.22
511.668	1315.22
534.261	993.76
556.756	818.85
579.155	767.49
601.459	744.58
623.667	786.03
645.781	777.67
667.8	733.22
689.726	605.4
711.56	576.4
733.301	599.31
754.951	620.58
776.509	656.12
797.977	658.67
819.355	645.03
840.644	589.85
861.844	526.94
882.955	478.76
903.979	450.4
924.916	439.67
945.766	432.4
966.529	422.94
987.208	415.12
1007.801	421.58
1028.309	434.4
1048.734	443.49
1069.075	441.58
1089.333	429.22
1109.509	407.85
1129.602	390.49
1149.614	387.76
1169.545	393.76
1189.395	396.03
1209.165	395.67
1228.856	394.76
1248.467	381.49
1268	359.22
1287.455	346.4
1306.832	349.31
1326.132	347.22
1345.354	341.31
1364.501	332.58
1383.572	320.31
1402.567	305.4
1421.487	299.22
1440.333	304.03
1459.104	308.85
1477.802	308.12
1496.426	310.49
1514.978	313.03
1533.457	317.49
1551.864	315.67
1570.199	305.12
1588.464	281.31
1606.657	269.31
1624.78	261.67
1642.834	261.67
1660.817	262.03
1678.732	264.03
1696.577	260.67
1714.355	247.31
1732.064	229.22
1749.705	210.76
1767.28	203.94
1784.787	200.22
1802.228	193.94
1819.603	181.76
1836.913	169.22
1854.156	165.58
1871.335	167.76
1888.449	170.22
1905.499	171.85
1922.485	171.4
1939.408	167.4
1956.267	159.12
1973.063	146.03
1989.797	135.31
2006.469	128.49
2023.078	124.4
2039.627	123.58
2056.114	123.22
2072.54	125.85
2088.906	125.22
2105.211	118.67
2121.457	109.22
2137.643	100.85
2153.77	94.31
2169.838	88.12
2185.848	82.31
2201.799	79.12
2217.693	77.31
2233.529	76.58
2249.307	71.4
2265.029	66.94
2280.694	61.12
2296.302	58.12
2311.854	72.67
2327.351	91.76
2342.792	88.03
2358.178	54.49
2373.508	41.94
2388.785	38.22
2404.007	35.76
2419.174	32.76
2434.289	29.22
2449.349	25.58
2464.356	24.22
2479.311	22.94
2494.213	22.58
2509.062	22.03
2523.859	22.03
2538.605	21.76
2553.299	20.03
2567.941	17.85
2582.533	14.85
2597.073	12.58
2611.564	8.31
2626.004	4.58
2640.394	1.12
2654.734	-0.78
2669.025	-0.88
2683.266	-3.24
2697.458	-5.69
2711.602	-7.42
2725.697	-7.06
2739.744	-7.42
2753.743	-8.87
2767.695	-13.15
2781.598	-14.88
2795.455	-16.33
2809.264	-15.78
2823.026	-16.06
2836.742	-16.51
2850.412	-15.6
2864.035	-16.33
2877.613	-18.78
2891.145	-22.69
2904.631	-26.88
2918.073	-27.42
2931.469	-29.24
2944.821	-29.97
2958.128	-32.42
2971.39	-34.6
2984.609	-37.15
2997.784	-38.97
3010.915	-40.15
3024.002	-41.6
3037.046	-42.78
3050.048	-43.51
3063.006	-44.24
3075.922	-43.69
3088.795	-44.97
3101.627	-44.33
3114.416	-44.69
3127.163	-46.97
3139.869	-47.88
3152.533	-49.24
3165.157	-50.42
3177.739	-52.33
3190.28	-52.51
3202.781	-53.24
3215.241	-53.24
3227.661	-53.97
3240.041	-54.97
3252.382	-55.69
3264.682	-56.06
3276.943	-57.06
3289.165	-57.78
3301.348	-58.78
3313.492	-59.42
3325.597	-60.51
3337.663	-60.88
3349.691	-60.88
3361.681	-60.33
3373.633	-60.88
3385.547	-61.06
3397.424	-60.69
3409.263	-60.24
3421.065	-60.42
3432.829	-61.69
3444.557	-61.42
3456.247	-61.33
3467.902	-60.15
3479.519	-60.15
3491.101	-60.78
3502.646	-61.97
3514.155	-61.97
3525.629	-61.24
3537.067	-62.06
3548.469	-63.15
3559.837	-62.69
3571.169	-62.88
3582.466	-62.88
3593.728	-63.15
3604.956	-63.15
3616.149	-62.06
3627.307	-62.06
3638.432	-63.6
3649.523	-66.15
3660.579	-66.97
3671.602	-67.88
3682.591	-69.06
3693.547	-68.33
3704.47	-68.69
3715.359	-67.97
3726.216	-68.33
3737.039	-68.15
3747.83	-68.97
3758.589	-68.15
3769.315	-65.69
3780.008	-64.33
3790.67	-62.88
3801.299	-63.78
3811.897	-64.78
3822.463	-65.78
3832.998	-66.42
3843.501	-66.78
3853.973	-66.06
3864.414	-55.06
3874.823	-14.69
3885.202	-6.33
3895.55	-24.69
3905.868	-63.97
3916.155	-69.97
3926.411	-70.06
3936.638	-69.69
3946.834	-67.15
3957	-65.42
3967.137	-66.97
3977.244	-67.33
3987.321	-67.06
3997.369	-65.15
4007.388	-65.78
4017.377	-66.78
4027.338	-67.6
4037.269	-66.24
4047.172	-66.33
4057.046	-66.24
4066.891	-67.24
4076.708	-66.33
4086.497	-67.51
4096.257	-45.42
4105.989	-7.24
4115.694	-6.51
4125.37	-39.15
4135.019	-67.76
4142.237	-66.54