File: Data/Raman/2017-08-24 - Glass, alluminum 108/Aluminum/alucontrol - 30s - I=1, bc=5_RamanShift_2.txt
Data from alucontrol - 30s - I=1, bc=5_RamanShift_2.txt Node

Date: Thu Aug 24 12:09:43 IDT 2017
User: aro
Spectrometer: QEPB0276
Trigger mode: 0
Integration Time (sec): 3.000000E1
Scans to average: 1
Electric dark correction enabled: true
Nonlinearity correction enabled: false
Boxcar width: 5
XAxis mode: Raman Shifts
Number of Pixels in Spectrum: 1044
>>>>>Begin Spectral Data<<<<<
160.701	183.54
184.826	548.88
208.845	950.28
232.758	1285.38
256.565	1389.83
280.267	1491.56
303.865	1583.83
327.359	1664.1
350.751	1762.83
374.04	1883.19
397.228	2201.01
420.315	2256.1
443.302	2184.1
466.189	1821.83
488.978	1613.28
511.668	1306.74
534.261	986.92
556.756	811.56
579.155	760.38
601.459	738.19
623.667	784.65
645.781	776.92
667.8	732.19
689.726	603.19
711.56	574.47
733.301	595.1
754.951	617.38
776.509	649.38
797.977	649.56
819.355	634.74
840.644	581.01
861.844	522.92
882.955	474.92
903.979	450.01
924.916	438.28
945.766	432.47
966.529	421.1
987.208	413.19
1007.801	418.19
1028.309	433.83
1048.734	448.47
1069.075	445.56
1089.333	431.28
1109.509	406.74
1129.602	388.74
1149.614	384.47
1169.545	387.74
1189.395	388.56
1209.165	390.38
1228.856	388.38
1248.467	376.65
1268	355.19
1287.455	345.65
1306.832	345.56
1326.132	346.28
1345.354	336.74
1364.501	330.38
1383.572	318.56
1402.567	305.56
1421.487	297.65
1440.333	302.1
1459.104	305.83
1477.802	307.65
1496.426	310.47
1514.978	311.83
1533.457	312.1
1551.864	310.74
1570.199	301.19
1588.464	277.19
1606.657	264.38
1624.78	256.56
1642.834	254.83
1660.817	256.65
1678.732	260.01
1696.577	258.56
1714.355	247.47
1732.064	228.92
1749.705	209.83
1767.28	200.65
1784.787	197.56
1802.228	193.56
1819.603	183.28
1836.913	172.28
1854.156	169.28
1871.335	172.19
1888.449	173.01
1905.499	173.01
1922.485	173.47
1939.408	170.74
1956.267	160.65
1973.063	147.65
1989.797	136.92
2006.469	131.38
2023.078	125.37
2039.627	122.56
2056.114	120.38
2072.54	123.01
2088.906	122.56
2105.211	117.74
2121.457	109.38
2137.643	101.19
2153.77	94.01
2169.838	88.28
2185.848	83.56
2201.799	79.47
2217.693	78.19
2233.529	76.47
2249.307	72.38
2265.029	67.19
2280.694	62.47
2296.302	58.74
2311.854	74.47
2327.351	92.01
2342.792	88.38
2358.178	53.65
2373.508	42.92
2388.785	39.56
2404.007	38.19
2419.174	33.74
2434.289	30.83
2449.349	27.65
2464.356	25.83
2479.311	25.28
2494.213	22.83
2509.062	22.01
2523.859	19.83
2538.605	20.19
2553.299	17.92
2567.941	16.92
2582.533	13.65
2597.073	11.47
2611.564	7.56
2626.004	3.92
2640.394	1.19
2654.734	0.28
2669.025	-1.62
2683.266	-3.62
2697.458	-5.53
2711.602	-5.81
2725.697	-5.17
2739.744	-3.81
2753.743	-5.81
2767.695	-8.99
2781.598	-11.44
2795.455	-13.44
2809.264	-15.44
2823.026	-16.26
2836.742	-17.81
2850.412	-17.9
2864.035	-19.26
2877.613	-20.72
2891.145	-23.9
2904.631	-27.81
2918.073	-28.53
2931.469	-28.9
2944.821	-30.35
2958.128	-31.72
2971.39	-33.26
2984.609	-32.9
2997.784	-34.53
3010.915	-35.99
3024.002	-38.44
3037.046	-40.81
3050.048	-41.81
3063.006	-43.35
3075.922	-44.44
3088.795	-44.44
3101.627	-44.72
3114.416	-45.35
3127.163	-47.08
3139.869	-48.72
3152.533	-50.62
3165.157	-51.9
3177.739	-52.35
3190.28	-52.08
3202.781	-51.35
3215.241	-51.44
3227.661	-51.99
3240.041	-52.9
3252.382	-52.9
3264.682	-52.81
3276.943	-54.35
3289.165	-54.9
3301.348	-55.53
3313.492	-56.08
3325.597	-57.08
3337.663	-57.81
3349.691	-57.9
3361.681	-57.81
3373.633	-59.9
3385.547	-60.99
3397.424	-63.08
3409.263	-62.9
3421.065	-63.17
3432.829	-63.99
3444.557	-64.44
3456.247	-63.62
3467.902	-62.81
3479.519	-61.08
3491.101	-59.44
3502.646	-60.35
3514.155	-60.08
3525.629	-59.62
3537.067	-58.99
3548.469	-60.44
3559.837	-60.26
3571.169	-60.44
3582.466	-60.53
3593.728	-61.9
3604.956	-62.44
3616.149	-61.72
3627.307	-62.53
3638.432	-63.72
3649.523	-66.17
3660.579	-66.44
3671.602	-66.9
3682.591	-68.81
3693.547	-67.9
3704.47	-67.62
3715.359	-65.81
3726.216	-65.44
3737.039	-66.08
3747.83	-66.62
3758.589	-67.26
3769.315	-66.44
3780.008	-67.17
3790.67	-66.72
3801.299	-67.35
3811.897	-68.53
3822.463	-68.44
3832.998	-68.72
3843.501	-68.08
3853.973	-65.99
3864.414	-53.99
3874.823	-16.62
3885.202	-8.26
3895.55	-25.44
3905.868	-61.17
3916.155	-67.08
3926.411	-67.35
3936.638	-68.08
3946.834	-67.53
3957	-65.08
3967.137	-65.72
3977.244	-66.9
3987.321	-68.35
3997.369	-68.08
4007.388	-67.62
4017.377	-67.44
4027.338	-68.72
4037.269	-67.08
4047.172	-66.35
4057.046	-65.62
4066.891	-64.62
4076.708	-64.17
4086.497	-64.9
4096.257	-43.53
4105.989	-4.35
4115.694	-1.44
4125.37	-34.44
4135.019	-64.4
4142.237	-65.46