File: Data/Raman/2017-08-24 - Glass, alluminum 108/Aluminum/BC1-2 - 30s - I=1, bc=5_RamanShift_1.txt
Data from BC1-2 - 30s - I=1, bc=5_RamanShift_1.txt Node

Date: Thu Aug 24 11:55:28 IDT 2017
User: aro
Spectrometer: QEPB0276
Trigger mode: 0
Integration Time (sec): 3.000000E1
Scans to average: 1
Electric dark correction enabled: true
Nonlinearity correction enabled: false
Boxcar width: 5
XAxis mode: Raman Shifts
Number of Pixels in Spectrum: 1044
>>>>>Begin Spectral Data<<<<<
160.701	237.29
184.826	760.92
208.845	1343.4
232.758	1840.94
256.565	1993.03
280.267	2114.31
303.865	2213.67
327.359	2295.4
350.751	2387.67
374.04	2491.94
397.228	2787.22
420.315	2841.12
443.302	2775.12
466.189	2422.49
488.978	2209.31
511.668	1908.4
534.261	1594.31
556.756	1423.22
579.155	1363.49
601.459	1330.76
623.667	1356.58
645.781	1340.4
667.8	1287.58
689.726	1156.94
711.56	1118.94
733.301	1135.49
754.951	1152.85
776.509	1175.4
797.977	1164.22
819.355	1141.58
840.644	1082.49
861.844	1021.76
882.955	969.4
903.979	930.31
924.916	912.58
945.766	900.49
966.529	879.49
987.208	858.67
1007.801	861.22
1028.309	874.12
1048.734	873.67
1069.075	861.67
1089.333	846.03
1109.509	817.4
1129.602	791.03
1149.614	778.67
1169.545	777.58
1189.395	771.03
1209.165	766.31
1228.856	760.94
1248.467	738.12
1268	704.12
1287.455	684.03
1306.832	682.03
1326.132	680.12
1345.354	667.85
1364.501	648.49
1383.572	619.31
1402.567	591.67
1421.487	580.03
1440.333	587.49
1459.104	594.22
1477.802	597.03
1496.426	604.4
1514.978	607.4
1533.457	595.49
1551.864	573.03
1570.199	548.67
1588.464	515.67
1606.657	495.12
1624.78	483.31
1642.834	485.49
1660.817	496.49
1678.732	505.12
1696.577	497.94
1714.355	479.94
1732.064	449.85
1749.705	422.49
1767.28	404.85
1784.787	404.85
1802.228	397.31
1819.603	373.49
1836.913	351.12
1854.156	343.94
1871.335	351.12
1888.449	356.31
1905.499	362.4
1922.485	368.12
1939.408	363.49
1956.267	341.31
1973.063	309.4
1989.797	284.03
2006.469	270.49
2023.078	262.03
2039.627	257.49
2056.114	257.67
2072.54	262.31
2088.906	263.03
2105.211	254.31
2121.457	237.31
2137.643	219.94
2153.77	205.4
2169.838	191.76
2185.848	181.03
2201.799	172.58
2217.693	169.22
2233.529	163.85
2249.307	155.49
2265.029	145.94
2280.694	137.67
2296.302	129.12
2311.854	138.49
2327.351	152.94
2342.792	146.31
2358.178	111.58
2373.508	99.03
2388.785	93.49
2404.007	89.03
2419.174	84.76
2434.289	81.03
2449.349	75.67
2464.356	71.76
2479.311	69.49
2494.213	67.76
2509.062	67.76
2523.859	67.67
2538.605	68.49
2553.299	67.31
2567.941	63.94
2582.533	59.22
2597.073	55.22
2611.564	48.85
2626.004	41.4
2640.394	35.49
2654.734	32.58
2669.025	29.67
2683.266	25.12
2697.458	20.67
2711.602	18.76
2725.697	19.49
2739.744	20.03
2753.743	17.22
2767.695	13.76
2781.598	10.49
2795.455	7.58
2809.264	5.76
2823.026	4.85
2836.742	3.03
2850.412	1.4
2864.035	-1.06
2877.613	-4.6
2891.145	-9.06
2904.631	-15.42
2918.073	-17.97
2931.469	-21.06
2944.821	-22.69
2958.128	-24.78
2971.39	-26.24
2984.609	-27.06
2997.784	-29.88
3010.915	-31.6
3024.002	-34.88
3037.046	-37.51
3050.048	-38.6
3063.006	-39.33
3075.922	-39.42
3088.795	-39.78
3101.627	-40.6
3114.416	-42.69
3127.163	-43.69
3139.869	-45.33
3152.533	-46.6
3165.157	-47.88
3177.739	-49.97
3190.28	-51.24
3202.781	-51.97
3215.241	-52.06
3227.661	-53.6
3240.041	-54.6
3252.382	-56.78
3264.682	-56.33
3276.943	-56.42
3289.165	-57.33
3301.348	-58.78
3313.492	-59.42
3325.597	-59.97
3337.663	-60.51
3349.691	-60.51
3361.681	-60.69
3373.633	-62.6
3385.547	-63.24
3397.424	-63.97
3409.263	-64.42
3421.065	-65.15
3432.829	-65.88
3444.557	-66.42
3456.247	-66.42
3467.902	-66.15
3479.519	-65.33
3491.101	-65.78
3502.646	-66.6
3514.155	-67.97
3525.629	-67.33
3537.067	-67.24
3548.469	-68.51
3559.837	-68.69
3571.169	-67.15
3582.466	-67.97
3593.728	-68.88
3604.956	-68.42
3616.149	-66.33
3627.307	-65.24
3638.432	-65.78
3649.523	-67.78
3660.579	-68.33
3671.602	-69.6
3682.591	-72.24
3693.547	-71.97
3704.47	-71.69
3715.359	-70.06
3726.216	-70.6
3737.039	-71.69
3747.83	-72.78
3758.589	-70.88
3769.315	-69.69
3780.008	-69.97
3790.67	-70.6
3801.299	-71.15
3811.897	-71.15
3822.463	-70.69
3832.998	-71.06
3843.501	-71.97
3853.973	-70.97
3864.414	-62.6
3874.823	-29.24
3885.202	-21.42
3895.55	-36.51
3905.868	-68.88
3916.155	-73.78
3926.411	-73.88
3936.638	-74.97
3946.834	-74.24
3957	-72.06
3967.137	-72.42
3977.244	-71.69
3987.321	-71.6
3997.369	-70.6
4007.388	-72.06
4017.377	-71.6
4027.338	-71.33
4037.269	-69.51
4047.172	-70.15
4057.046	-71.24
4066.891	-71.06
4076.708	-70.06
4086.497	-69.97
4096.257	-50.97
4105.989	-15.33
4115.694	-13.6
4125.37	-42.97
4135.019	-70.88
4142.237	-71.04