File: Data/Raman/2017-08-24 - Glass, alluminum 108/Aluminum/BC108 - 30s - I=1, bc=5_RamanShift_2.txt
Data from BC108 - 30s - I=1, bc=5_RamanShift_2.txt Node

Date: Thu Aug 24 11:53:58 IDT 2017
User: aro
Spectrometer: QEPB0276
Trigger mode: 0
Integration Time (sec): 3.000000E1
Scans to average: 1
Electric dark correction enabled: true
Nonlinearity correction enabled: false
Boxcar width: 5
XAxis mode: Raman Shifts
Number of Pixels in Spectrum: 1044
>>>>>Begin Spectral Data<<<<<
160.701	204.38
184.826	692.07
208.845	1229.88
232.758	1683.06
256.565	1819.33
280.267	1928.33
303.865	2026.88
327.359	2105.6
350.751	2194.15
374.04	2294.24
397.228	2581.97
420.315	2636.69
443.302	2572.06
466.189	2230.78
488.978	2025.24
511.668	1735.69
534.261	1434.24
556.756	1268.42
579.155	1214.51
601.459	1182.24
623.667	1207.78
645.781	1191.78
667.8	1144.6
689.726	1022.51
711.56	987.6
733.301	1005.24
754.951	1023.88
776.509	1052.33
797.977	1045.69
819.355	1027.6
840.644	973.97
861.844	914.78
882.955	862.42
903.979	829.6
924.916	814.78
945.766	802.42
966.529	784.33
987.208	769.24
1007.801	773.51
1028.309	787.88
1048.734	786.15
1069.075	774.97
1089.333	761.51
1109.509	737.06
1129.602	711.42
1149.614	698.24
1169.545	699.88
1189.395	695.6
1209.165	694.06
1228.856	690.78
1248.467	673.33
1268	641.15
1287.455	623.6
1306.832	622.6
1326.132	619.97
1345.354	603.42
1364.501	579.33
1383.572	552.78
1402.567	531.97
1421.487	524.69
1440.333	529.15
1459.104	534.15
1477.802	531.51
1496.426	532.24
1514.978	528.33
1533.457	519.69
1551.864	505.42
1570.199	486.6
1588.464	455.97
1606.657	436.51
1624.78	426.33
1642.834	428.33
1660.817	436.06
1678.732	438.97
1696.577	426.88
1714.355	407.6
1732.064	383.06
1749.705	358.88
1767.28	345.51
1784.787	338.15
1802.228	331.15
1819.603	314.51
1836.913	298.24
1854.156	295.97
1871.335	299.24
1888.449	302.33
1905.499	303.69
1922.485	306.78
1939.408	300.88
1956.267	281.51
1973.063	258.24
1989.797	238.33
2006.469	227.69
2023.078	216.33
2039.627	211.42
2056.114	213.15
2072.54	217.06
2088.906	217.6
2105.211	208.97
2121.457	194.33
2137.643	182.88
2153.77	173.97
2169.838	165.6
2185.848	157.88
2201.799	152.06
2217.693	148.06
2233.529	144.51
2249.307	137.6
2265.029	130.69
2280.694	124.06
2296.302	119.6
2311.854	130.33
2327.351	144.78
2342.792	138.97
2358.178	107.6
2373.508	97.33
2388.785	94.6
2404.007	90.42
2419.174	86.15
2434.289	83.06
2449.349	78.97
2464.356	74.15
2479.311	72.88
2494.213	69.69
2509.062	70.06
2523.859	67.33
2538.605	66.6
2553.299	63.06
2567.941	61.33
2582.533	56.33
2597.073	52.51
2611.564	48.69
2626.004	43.06
2640.394	38.69
2654.734	35.15
2669.025	33.15
2683.266	28.24
2697.458	24.78
2711.602	22.69
2725.697	23.78
2739.744	23.88
2753.743	20.33
2767.695	16.33
2781.598	12.97
2795.455	12.97
2809.264	12.33
2823.026	11.6
2836.742	9.6
2850.412	8.69
2864.035	7.06
2877.613	5.06
2891.145	1.78
2904.631	-2.85
2918.073	-5.4
2931.469	-7.4
2944.821	-9.4
2958.128	-12.03
2971.39	-13.49
2984.609	-14.03
2997.784	-15.49
3010.915	-17.67
3024.002	-21.31
3037.046	-24.49
3050.048	-27.94
3063.006	-29.03
3075.922	-29.85
3088.795	-29.67
3101.627	-30.85
3114.416	-30.31
3127.163	-30.94
3139.869	-31.85
3152.533	-34.31
3165.157	-34.49
3177.739	-35.12
3190.28	-34.22
3202.781	-34.49
3215.241	-34.22
3227.661	-36.94
3240.041	-37.85
3252.382	-38.67
3264.682	-38.49
3276.943	-39.67
3289.165	-41.4
3301.348	-43.22
3313.492	-44.03
3325.597	-46.22
3337.663	-48.03
3349.691	-48.22
3361.681	-47.58
3373.633	-49.31
3385.547	-50.12
3397.424	-50.94
3409.263	-49.94
3421.065	-48.67
3432.829	-49.22
3444.557	-48.76
3456.247	-48.58
3467.902	-48.03
3479.519	-47.94
3491.101	-48.22
3502.646	-47.85
3514.155	-47.4
3525.629	-47.4
3537.067	-49.03
3548.469	-49.76
3559.837	-51.12
3571.169	-49.85
3582.466	-50.31
3593.728	-50.76
3604.956	-51.31
3616.149	-51.58
3627.307	-51.31
3638.432	-52.4
3649.523	-53.85
3660.579	-54.03
3671.602	-53.94
3682.591	-55.22
3693.547	-55.49
3704.47	-56.85
3715.359	-55.94
3726.216	-55.94
3737.039	-55.94
3747.83	-56.03
3758.589	-55.4
3769.315	-55.67
3780.008	-54.58
3790.67	-54.49
3801.299	-55.31
3811.897	-54.85
3822.463	-53.67
3832.998	-52.49
3843.501	-53.94
3853.973	-54.22
3864.414	-48.76
3874.823	-25.58
3885.202	-20.67
3895.55	-29.4
3905.868	-51.12
3916.155	-54.85
3926.411	-54.31
3936.638	-54.4
3946.834	-53.4
3957	-52.85
3967.137	-52.67
3977.244	-52.31
3987.321	-52.12
3997.369	-51.31
4007.388	-52.03
4017.377	-52.4
4027.338	-54.85
4037.269	-53.49
4047.172	-55.85
4057.046	-55.4
4066.891	-55.03
4076.708	-53.22
4086.497	-54.67
4096.257	-41.22
4105.989	-17.76
4115.694	-17.31
4125.37	-36.67
4135.019	-54.24
4142.237	-54.12