File: Data/Raman/2017-08-24 - Glass, alluminum 108/Aluminum/BC107 - 30s - I=1, bc=5_RamanShift_1.txt
Data from BC107 - 30s - I=1, bc=5_RamanShift_1.txt Node

Date: Thu Aug 24 11:57:58 IDT 2017
User: aro
Spectrometer: QEPB0276
Trigger mode: 0
Integration Time (sec): 3.000000E1
Scans to average: 1
Electric dark correction enabled: true
Nonlinearity correction enabled: false
Boxcar width: 5
XAxis mode: Raman Shifts
Number of Pixels in Spectrum: 1044
>>>>>Begin Spectral Data<<<<<
160.701	212.21
184.826	696.38
208.845	1239.33
232.758	1698.69
256.565	1843.69
280.267	1966.88
303.865	2070.97
327.359	2150.42
350.751	2243.15
374.04	2353.06
397.228	2650.33
420.315	2702.42
443.302	2637.42
466.189	2293.15
488.978	2087.42
511.668	1802.69
534.261	1503.33
556.756	1338.24
579.155	1285.78
601.459	1255.88
623.667	1278.15
645.781	1284.15
667.8	1237.33
689.726	1112.97
711.56	1065.06
733.301	1081.24
754.951	1093.42
776.509	1113.33
797.977	1108.24
819.355	1090.15
840.644	1034.6
861.844	977.42
882.955	923.06
903.979	889.06
924.916	875.06
945.766	863.24
966.529	841.33
987.208	823.15
1007.801	830.6
1028.309	847.15
1048.734	850.24
1069.075	839.69
1089.333	822.15
1109.509	800.15
1129.602	775.88
1149.614	767.97
1169.545	768.15
1189.395	766.33
1209.165	767.6
1228.856	766.69
1248.467	748.15
1268	714.06
1287.455	699.24
1306.832	698.06
1326.132	691.6
1345.354	672.06
1364.501	655.69
1383.572	637.88
1402.567	617.51
1421.487	606.06
1440.333	611.69
1459.104	614.88
1477.802	610.97
1496.426	608.51
1514.978	606.69
1533.457	601.6
1551.864	593.15
1570.199	580.42
1588.464	554.6
1606.657	533.06
1624.78	518.33
1642.834	513.24
1660.817	514.78
1678.732	510.88
1696.577	491.88
1714.355	472.24
1732.064	451.24
1749.705	425.33
1767.28	406.69
1784.787	395.6
1802.228	388.69
1819.603	375.97
1836.913	364.42
1854.156	361.24
1871.335	362.88
1888.449	360.33
1905.499	355.97
1922.485	353.15
1939.408	347.24
1956.267	331.88
1973.063	311.06
1989.797	293.97
2006.469	284.78
2023.078	276.69
2039.627	266.88
2056.114	262.51
2072.54	263.97
2088.906	261.97
2105.211	251.88
2121.457	238.06
2137.643	227.33
2153.77	217.51
2169.838	207.78
2185.848	198.42
2201.799	192.42
2217.693	188.88
2233.529	184.97
2249.307	175.6
2265.029	167.24
2280.694	158.88
2296.302	152.33
2311.854	160.6
2327.351	175.88
2342.792	171.42
2358.178	140.78
2373.508	128.33
2388.785	124.24
2404.007	120.78
2419.174	118.06
2434.289	114.69
2449.349	110.24
2464.356	105.51
2479.311	101.51
2494.213	98.6
2509.062	96.42
2523.859	94.51
2538.605	92.06
2553.299	87.42
2567.941	84.15
2582.533	80.69
2597.073	75.06
2611.564	69.06
2626.004	63.6
2640.394	59.06
2654.734	54.78
2669.025	50.51
2683.266	46.78
2697.458	43.06
2711.602	39.15
2725.697	37.51
2739.744	35.78
2753.743	34.51
2767.695	30.24
2781.598	26.88
2795.455	24.78
2809.264	23.06
2823.026	21.42
2836.742	18.78
2850.412	16.88
2864.035	15.15
2877.613	12.6
2891.145	8.33
2904.631	2.88
2918.073	-0.31
2931.469	-1.49
2944.821	-4.58
2958.128	-6.4
2971.39	-8.85
2984.609	-11.4
2997.784	-13.85
3010.915	-14.12
3024.002	-16.76
3037.046	-19.85
3050.048	-21.67
3063.006	-24.22
3075.922	-24.67
3088.795	-24.22
3101.627	-25.67
3114.416	-28.12
3127.163	-30.49
3139.869	-31.12
3152.533	-32.03
3165.157	-33.12
3177.739	-34.31
3190.28	-34.85
3202.781	-34.85
3215.241	-35.31
3227.661	-38.12
3240.041	-41.4
3252.382	-42.76
3264.682	-42.85
3276.943	-42.76
3289.165	-43.67
3301.348	-46.12
3313.492	-48.03
3325.597	-49.94
3337.663	-51.4
3349.691	-50.67
3361.681	-49.85
3373.633	-50.94
3385.547	-52.58
3397.424	-53.67
3409.263	-53.76
3421.065	-53.22
3432.829	-53.12
3444.557	-53.12
3456.247	-53.31
3467.902	-53.31
3479.519	-52.76
3491.101	-53.4
3502.646	-53.31
3514.155	-52.85
3525.629	-51.94
3537.067	-53.76
3548.469	-55.22
3559.837	-54.94
3571.169	-54.76
3582.466	-55.85
3593.728	-56.67
3604.956	-56.58
3616.149	-55.67
3627.307	-56.22
3638.432	-57.22
3649.523	-58.76
3660.579	-59.49
3671.602	-60.03
3682.591	-61.85
3693.547	-60.67
3704.47	-60.49
3715.359	-59.4
3726.216	-59.58
3737.039	-59.85
3747.83	-59.94
3758.589	-59.12
3769.315	-57.85
3780.008	-56.67
3790.67	-56.49
3801.299	-57.67
3811.897	-58.4
3822.463	-58.31
3832.998	-58.76
3843.501	-60.49
3853.973	-61.58
3864.414	-54.4
3874.823	-27.31
3885.202	-22.4
3895.55	-34.31
3905.868	-59.76
3916.155	-62.76
3926.411	-62.31
3936.638	-61.22
3946.834	-60.22
3957	-58.4
3967.137	-58.31
3977.244	-57.67
3987.321	-58.4
3997.369	-57.94
4007.388	-58.22
4017.377	-57.76
4027.338	-60.4
4037.269	-59.67
4047.172	-60.94
4057.046	-60.12
4066.891	-60.76
4076.708	-59.76
4086.497	-59.76
4096.257	-43.67
4105.989	-14.67
4115.694	-13.31
4125.37	-37.76
4135.019	-59.9
4142.237	-59.96