File: Data/Raman/2017-08-24 - Glass, alluminum 108/Aluminum/BC107 - 30s - I=1, bc=5_RamanShift_2.txt
Data from BC107 - 30s - I=1, bc=5_RamanShift_2.txt Node

Date: Thu Aug 24 11:58:28 IDT 2017
User: aro
Spectrometer: QEPB0276
Trigger mode: 0
Integration Time (sec): 3.000000E1
Scans to average: 1
Electric dark correction enabled: true
Nonlinearity correction enabled: false
Boxcar width: 5
XAxis mode: Raman Shifts
Number of Pixels in Spectrum: 1044
>>>>>Begin Spectral Data<<<<<
160.701	207.29
184.826	688.12
208.845	1224.08
232.758	1682.62
256.565	1822.62
280.267	1945.53
303.865	2046.44
327.359	2131.17
350.751	2223.72
374.04	2334.35
397.228	2626.26
420.315	2683.81
443.302	2617.17
466.189	2273.26
488.978	2064.53
511.668	1774.81
534.261	1474.35
556.756	1313.72
579.155	1263.62
601.459	1230.99
623.667	1258.62
645.781	1244.26
667.8	1198.17
689.726	1076.35
711.56	1045.26
733.301	1063.08
754.951	1080.53
776.509	1098.17
797.977	1090.62
819.355	1070.35
840.644	1014.99
861.844	956.9
882.955	903.9
903.979	872.26
924.916	855.99
945.766	846.17
966.529	825.99
987.208	812.26
1007.801	817.9
1028.309	834.17
1048.734	835.35
1069.075	828.17
1089.333	813.53
1109.509	790.08
1129.602	767.62
1149.614	756.99
1169.545	760.17
1189.395	756.62
1209.165	757.17
1228.856	752.99
1248.467	736.35
1268	707.08
1287.455	691.53
1306.832	690.99
1326.132	684.26
1345.354	663.53
1364.501	643.9
1383.572	624.81
1402.567	609.08
1421.487	600.08
1440.333	605.08
1459.104	607.17
1477.802	601.72
1496.426	597.72
1514.978	597.08
1533.457	595.81
1551.864	590.17
1570.199	576.44
1588.464	548.08
1606.657	527.26
1624.78	511.99
1642.834	510.9
1660.817	516.17
1678.732	509.44
1696.577	493.17
1714.355	470.17
1732.064	447.08
1749.705	421.62
1767.28	405.08
1784.787	396.99
1802.228	388.62
1819.603	372.72
1836.913	358.9
1854.156	353.53
1871.335	355.17
1888.449	354.81
1905.499	352.72
1922.485	346.99
1939.408	339.81
1956.267	322.08
1973.063	301.53
1989.797	285.08
2006.469	277.9
2023.078	269.9
2039.627	262.35
2056.114	258.99
2072.54	258.08
2088.906	258.35
2105.211	247.99
2121.457	237.08
2137.643	225.17
2153.77	216.26
2169.838	204.81
2185.848	195.53
2201.799	188.72
2217.693	185.44
2233.529	182.17
2249.307	173.9
2265.029	165.44
2280.694	157.72
2296.302	150.26
2311.854	160.26
2327.351	175.26
2342.792	171.17
2358.178	139.08
2373.508	126.81
2388.785	122.9
2404.007	120.26
2419.174	118.35
2434.289	114.44
2449.349	109.72
2464.356	103.17
2479.311	100.72
2494.213	97.35
2509.062	95.44
2523.859	91.26
2538.605	88.9
2553.299	85.53
2567.941	81.08
2582.533	76.26
2597.073	70.9
2611.564	66.53
2626.004	61.44
2640.394	56.26
2654.734	52.72
2669.025	51.26
2683.266	46.72
2697.458	41.72
2711.602	37.62
2725.697	36.17
2739.744	34.9
2753.743	33.53
2767.695	30.62
2781.598	26.44
2795.455	24.53
2809.264	23.35
2823.026	23.26
2836.742	20.26
2850.412	17.63
2864.035	15.08
2877.613	11.9
2891.145	7.44
2904.631	1.62
2918.073	-0.83
2931.469	-3.01
2944.821	-5.56
2958.128	-8.56
2971.39	-10.83
2984.609	-13.1
2997.784	-15.19
3010.915	-16.92
3024.002	-20.83
3037.046	-24.1
3050.048	-25.1
3063.006	-24.01
3075.922	-23.65
3088.795	-23.56
3101.627	-23.92
3114.416	-26.56
3127.163	-28.47
3139.869	-30.56
3152.533	-32.01
3165.157	-33.92
3177.739	-35.65
3190.28	-36.1
3202.781	-35.92
3215.241	-35.92
3227.661	-37.19
3240.041	-39.47
3252.382	-40.56
3264.682	-42.1
3276.943	-42.56
3289.165	-43.83
3301.348	-45.92
3313.492	-48.19
3325.597	-50.28
3337.663	-51.28
3349.691	-52.1
3361.681	-52.19
3373.633	-53.47
3385.547	-53.92
3397.424	-54.65
3409.263	-54.28
3421.065	-54.1
3432.829	-54.38
3444.557	-54.01
3456.247	-54.1
3467.902	-53.1
3479.519	-53.47
3491.101	-54.38
3502.646	-55.28
3514.155	-53.83
3525.629	-52.47
3537.067	-52.74
3548.469	-54.38
3559.837	-55.19
3571.169	-55.38
3582.466	-56.47
3593.728	-57.19
3604.956	-57.01
3616.149	-56.38
3627.307	-56.19
3638.432	-57.38
3649.523	-58.74
3660.579	-58.65
3671.602	-58.1
3682.591	-59.1
3693.547	-58.92
3704.47	-58.56
3715.359	-57.65
3726.216	-58.1
3737.039	-59.47
3747.83	-60.1
3758.589	-60.56
3769.315	-59.74
3780.008	-60.56
3790.67	-59.56
3801.299	-61.01
3811.897	-62.28
3822.463	-61.56
3832.998	-61.65
3843.501	-60.74
3853.973	-60.19
3864.414	-52.83
3874.823	-25.47
3885.202	-19.47
3895.55	-30.01
3905.868	-55.47
3916.155	-60.65
3926.411	-61.56
3936.638	-61.92
3946.834	-60.83
3957	-59.19
3967.137	-59.65
3977.244	-59.1
3987.321	-60.83
3997.369	-60.56
4007.388	-61.28
4017.377	-61.47
4027.338	-63.01
4037.269	-60.83
4047.172	-60.83
4057.046	-59.83
4066.891	-60.28
4076.708	-58.74
4086.497	-60.01
4096.257	-45.65
4105.989	-18.19
4115.694	-16.19
4125.37	-38.1
4135.019	-58.82
4142.237	-58.21