File: Data/Raman/2017-08-24 - Glass, alluminum 108/Aluminum/BC108 - 30s - I=1, bc=5_RamanShift_1.txt
Data from BC108 - 30s - I=1, bc=5_RamanShift_1.txt Node

Date: Thu Aug 24 11:53:10 IDT 2017
User: aro
Spectrometer: QEPB0276
Trigger mode: 0
Integration Time (sec): 3.000000E1
Scans to average: 1
Electric dark correction enabled: true
Nonlinearity correction enabled: false
Boxcar width: 5
XAxis mode: Raman Shifts
Number of Pixels in Spectrum: 1044
>>>>>Begin Spectral Data<<<<<
160.701	227.38
184.826	766.38
208.845	1368.56
232.758	1874.92
256.565	2024.1
280.267	2143.47
303.865	2241.56
327.359	2324.1
350.751	2403.74
374.04	2495.83
397.228	2766.38
420.315	2811.47
443.302	2743.56
466.189	2415.92
488.978	2216.92
511.668	1939.83
534.261	1640.38
556.756	1477.74
579.155	1420.1
601.459	1387.56
623.667	1405.28
645.781	1389.65
667.8	1342.28
689.726	1220.38
711.56	1183.74
733.301	1193.74
754.951	1210.01
776.509	1231.92
797.977	1218.01
819.355	1191.01
840.644	1137.74
861.844	1080.19
882.955	1026.1
903.979	986.83
924.916	970.65
945.766	956.83
966.529	931.19
987.208	909.92
1007.801	910.1
1028.309	924.19
1048.734	921.28
1069.075	907.83
1089.333	887.92
1109.509	862.1
1129.602	833.1
1149.614	819.74
1169.545	814.92
1189.395	806.28
1209.165	800.56
1228.856	795.83
1248.467	773.1
1268	738.19
1287.455	714.74
1306.832	714.47
1326.132	711.47
1345.354	691.83
1364.501	663.38
1383.572	632.83
1402.567	609.19
1421.487	600.28
1440.333	603.38
1459.104	608.83
1477.802	607.1
1496.426	608.28
1514.978	603.56
1533.457	589.1
1551.864	572.65
1570.199	551.38
1588.464	523.01
1606.657	500.19
1624.78	484.01
1642.834	483.01
1660.817	490.47
1678.732	493.74
1696.577	481.38
1714.355	459.83
1732.064	432.83
1749.705	405.74
1767.28	387.92
1784.787	383.1
1802.228	373.28
1819.603	351.56
1836.913	334.01
1854.156	329.65
1871.335	334.56
1888.449	337.65
1905.499	340.1
1922.485	339.56
1939.408	332.28
1956.267	311.47
1973.063	284.74
1989.797	265.19
2006.469	254.01
2023.078	244.1
2039.627	237.47
2056.114	236.47
2072.54	240.56
2088.906	241.19
2105.211	231.38
2121.457	216.92
2137.643	203.83
2153.77	195.1
2169.838	183.19
2185.848	172.47
2201.799	164.47
2217.693	162.28
2233.529	158.65
2249.307	151.1
2265.029	144.28
2280.694	136.01
2296.302	128.83
2311.854	137.83
2327.351	151.19
2342.792	144.65
2358.178	113.47
2373.508	102.1
2388.785	98.47
2404.007	96.19
2419.174	93.92
2434.289	90.83
2449.349	85.47
2464.356	79.38
2479.311	78.56
2494.213	76.65
2509.062	76.47
2523.859	75.01
2538.605	75.19
2553.299	74.28
2567.941	70.01
2582.533	64.83
2597.073	58.65
2611.564	54.47
2626.004	47.28
2640.394	44.56
2654.734	40.19
2669.025	37.1
2683.266	30.74
2697.458	27.83
2711.602	24.83
2725.697	25.19
2739.744	25.56
2753.743	23.47
2767.695	18.19
2781.598	15.01
2795.455	13.83
2809.264	13.19
2823.026	11.01
2836.742	8.28
2850.412	8.01
2864.035	5.74
2877.613	1.74
2891.145	-3.26
2904.631	-7.99
2918.073	-9.35
2931.469	-10.81
2944.821	-12.72
2958.128	-15.62
2971.39	-17.44
2984.609	-18.35
2997.784	-20.35
3010.915	-21.99
3024.002	-24.17
3037.046	-26.08
3050.048	-28.17
3063.006	-28.81
3075.922	-30.17
3088.795	-30.99
3101.627	-31.99
3114.416	-31.53
3127.163	-31.9
3139.869	-33.53
3152.533	-34.08
3165.157	-34.53
3177.739	-35.53
3190.28	-37.17
3202.781	-37.72
3215.241	-37.53
3227.661	-38.72
3240.041	-40.35
3252.382	-40.9
3264.682	-40.17
3276.943	-41.81
3289.165	-43.35
3301.348	-44.81
3313.492	-45.62
3325.597	-47.72
3337.663	-48.26
3349.691	-49.17
3361.681	-49.17
3373.633	-51.53
3385.547	-52.72
3397.424	-53.81
3409.263	-53.35
3421.065	-53.17
3432.829	-53.72
3444.557	-53.81
3456.247	-54.53
3467.902	-54.08
3479.519	-52.81
3491.101	-53.08
3502.646	-51.9
3514.155	-51.44
3525.629	-50.53
3537.067	-51.72
3548.469	-52.62
3559.837	-52.53
3571.169	-53.08
3582.466	-52.72
3593.728	-53.53
3604.956	-53.08
3616.149	-53.35
3627.307	-53.44
3638.432	-54.81
3649.523	-57.72
3660.579	-58.9
3671.602	-58.26
3682.591	-59.53
3693.547	-59.35
3704.47	-59.44
3715.359	-58.62
3726.216	-58.53
3737.039	-59.72
3747.83	-58.81
3758.589	-58.44
3769.315	-57.53
3780.008	-57.17
3790.67	-55.44
3801.299	-54.99
3811.897	-55.26
3822.463	-55.44
3832.998	-55.9
3843.501	-55.26
3853.973	-56.62
3864.414	-51.17
3874.823	-27.72
3885.202	-21.53
3895.55	-32.17
3905.868	-55.53
3916.155	-59.62
3926.411	-59.44
3936.638	-59.9
3946.834	-59.62
3957	-58.9
3967.137	-58.53
3977.244	-58.72
3987.321	-58.72
3997.369	-58.35
4007.388	-58.08
4017.377	-57.9
4027.338	-58.53
4037.269	-57.26
4047.172	-58.81
4057.046	-58.44
4066.891	-58.62
4076.708	-56.72
4086.497	-58.35
4096.257	-45.62
4105.989	-22.26
4115.694	-20.53
4125.37	-39.35
4135.019	-57.51
4142.237	-56.79