File: Data/Raman/2017-08-24 - Glass, alluminum 108/Aluminum/just alumminum - 30s - I=1, bc=5_RamanShift_1.txt
Data from just alumminum - 30s - I=1, bc=5_RamanShift_1.txt Node

Date: Thu Aug 24 11:51:55 IDT 2017
User: aro
Spectrometer: QEPB0276
Trigger mode: 0
Integration Time (sec): 3.000000E1
Scans to average: 1
Electric dark correction enabled: true
Nonlinearity correction enabled: false
Boxcar width: 5
XAxis mode: Raman Shifts
Number of Pixels in Spectrum: 1044
>>>>>Begin Spectral Data<<<<<
160.701	217.25
184.826	644.85
208.845	1113.11
232.758	1507.3
256.565	1633.84
280.267	1749.39
303.865	1857.93
327.359	1952.2
350.751	2065.84
374.04	2199.02
397.228	2553.66
420.315	2620.66
443.302	2541.84
466.189	2133.48
488.978	1890.57
511.668	1544.39
534.261	1179.66
556.756	980.39
579.155	920.93
601.459	891.93
623.667	934.3
645.781	926.39
667.8	877.11
689.726	736.57
711.56	697.93
733.301	719.39
754.951	741.02
776.509	777.48
797.977	780.39
819.355	768.02
840.644	707.48
861.844	640.48
882.955	582.2
903.979	548.02
924.916	534.48
945.766	527.02
966.529	516.84
987.208	508.39
1007.801	515.57
1028.309	532.11
1048.734	543.84
1069.075	542.2
1089.333	527.93
1109.509	501.02
1129.602	480.93
1149.614	477.11
1169.545	481.57
1189.395	483.66
1209.165	482.02
1228.856	481.57
1248.467	467.66
1268	446.11
1287.455	433.66
1306.832	432.93
1326.132	430.11
1345.354	419.39
1364.501	407.11
1383.572	393.75
1402.567	378.02
1421.487	370.39
1440.333	373.75
1459.104	378.57
1477.802	379.02
1496.426	383.75
1514.978	384.57
1533.457	382.75
1551.864	379.57
1570.199	367.84
1588.464	344.66
1606.657	327.57
1624.78	317.84
1642.834	317.66
1660.817	320.39
1678.732	321.57
1696.577	312.3
1714.355	300.3
1732.064	279.39
1749.705	258.11
1767.28	243.39
1784.787	237.75
1802.228	230.48
1819.603	219.57
1836.913	206.93
1854.156	206.3
1871.335	209.11
1888.449	211.48
1905.499	210.39
1922.485	209.39
1939.408	204.66
1956.267	192.93
1973.063	176.3
1989.797	162.84
2006.469	155.2
2023.078	149.57
2039.627	145.3
2056.114	145.2
2072.54	147.84
2088.906	147.66
2105.211	140.3
2121.457	130.39
2137.643	119.93
2153.77	111.93
2169.838	104.66
2185.848	98.39
2201.799	92.84
2217.693	92.2
2233.529	90.02
2249.307	84.3
2265.029	78.93
2280.694	73.93
2296.302	70.11
2311.854	85.11
2327.351	104.02
2342.792	101.3
2358.178	66.93
2373.508	53.39
2388.785	51.39
2404.007	50.39
2419.174	47.57
2434.289	44.11
2449.349	39.3
2464.356	34.84
2479.311	34.2
2494.213	32.48
2509.062	32.39
2523.859	31.84
2538.605	30.11
2553.299	28.02
2567.941	27.39
2582.533	24.39
2597.073	20.3
2611.564	15.02
2626.004	10.57
2640.394	6.57
2654.734	4.3
2669.025	1.57
2683.266	-1.25
2697.458	-5.34
2711.602	-5.43
2725.697	-4.7
2739.744	-5.34
2753.743	-7.34
2767.695	-11.07
2781.598	-11.52
2795.455	-13.34
2809.264	-13.98
2823.026	-15.61
2836.742	-17.25
2850.412	-18.07
2864.035	-20.43
2877.613	-23.98
2891.145	-28.7
2904.631	-32.52
2918.073	-34.07
2931.469	-35.34
2944.821	-36.98
2958.128	-38.7
2971.39	-40.89
2984.609	-41.7
2997.784	-43.34
3010.915	-44.25
3024.002	-46.7
3037.046	-48.8
3050.048	-50.52
3063.006	-52.07
3075.922	-52.7
3088.795	-53.7
3101.627	-54.43
3114.416	-54.61
3127.163	-56.16
3139.869	-56.8
3152.533	-57.25
3165.157	-56.7
3177.739	-57.89
3190.28	-58.89
3202.781	-59.16
3215.241	-58.98
3227.661	-61.16
3240.041	-63.07
3252.382	-64.61
3264.682	-64.07
3276.943	-65.25
3289.165	-65.98
3301.348	-67.34
3313.492	-68.8
3325.597	-69.8
3337.663	-69.52
3349.691	-70.16
3361.681	-70.52
3373.633	-71.07
3385.547	-70.52
3397.424	-71.34
3409.263	-71.98
3421.065	-72.98
3432.829	-72.61
3444.557	-71.61
3456.247	-71.43
3467.902	-71.07
3479.519	-71.25
3491.101	-71.98
3502.646	-72.07
3514.155	-71.89
3525.629	-71.16
3537.067	-72.25
3548.469	-73.25
3559.837	-73.89
3571.169	-74.25
3582.466	-75.07
3593.728	-77.07
3604.956	-76.98
3616.149	-75.61
3627.307	-73.61
3638.432	-74.7
3649.523	-76.98
3660.579	-78.16
3671.602	-79.34
3682.591	-80.8
3693.547	-80.8
3704.47	-80.98
3715.359	-78.89
3726.216	-78.98
3737.039	-79.16
3747.83	-79.34
3758.589	-78.98
3769.315	-77.61
3780.008	-77.98
3790.67	-77.34
3801.299	-78.16
3811.897	-77.89
3822.463	-78.7
3832.998	-78.16
3843.501	-78.52
3853.973	-77.89
3864.414	-62.8
3874.823	-1.61
3885.202	11.39
3895.55	-12.16
3905.868	-70.7
3916.155	-79.16
3926.411	-80.7
3936.638	-80.52
3946.834	-79.8
3957	-76.61
3967.137	-77.89
3977.244	-78.98
3987.321	-79.8
3997.369	-79.98
4007.388	-80.89
4017.377	-81.89
4027.338	-81.7
4037.269	-79.98
4047.172	-80.7
4057.046	-81.16
4066.891	-80.61
4076.708	-78.98
4086.497	-79.89
4096.257	-51.61
4105.989	-3.89
4115.694	-2.52
4125.37	-44.52
4135.019	-80.25
4142.237	-80.58