File: Data/Raman/2017-11-7 - OceranOptics SERS/etoh on glass_RamanShift_1.txt
Data from etoh on glass_RamanShift_1.txt Node

Date: Tue Nov 07 11:07:47 IST 2017
User: aro
Spectrometer: QEPB0276
Trigger mode: 0
Integration Time (sec): 1.500000E1
Scans to average: 3
Electric dark correction enabled: true
Nonlinearity correction enabled: false
Boxcar width: 0
XAxis mode: Raman Shifts
Number of Pixels in Spectrum: 1044
>>>>>Begin Spectral Data<<<<<
160.701	5.92
184.826	146.92
208.845	768.25
232.758	868.58
256.565	945.25
280.267	1008.25
303.865	1089.58
327.359	1164.58
350.751	1233.25
374.04	1283.92
397.228	1303.58
420.315	1539.25
443.302	1285.25
466.189	1223.92
488.978	1193.25
511.668	1084.92
534.261	983.92
556.756	978.92
579.155	952.58
601.459	928.58
623.667	905.92
645.781	936.92
667.8	859.25
689.726	826.58
711.56	812.92
733.301	803.92
754.951	826.92
776.509	808.58
797.977	822.58
819.355	806.25
840.644	787.92
861.844	774.25
882.955	778.58
903.979	752.25
924.916	777.92
945.766	790.25
966.529	782.58
987.208	789.92
1007.801	841.25
1028.309	906.25
1048.734	954.25
1069.075	1013.25
1089.333	1148.92
1109.509	1274.58
1129.602	1341.58
1149.614	1476.58
1169.545	1647.25
1189.395	1780.92
1209.165	1925.25
1228.856	2144.92
1248.467	2313.92
1268	2365.92
1287.455	2577.25
1306.832	3161.58
1326.132	3934.25
1345.354	4583.25
1364.501	4883.25
1383.572	4931.25
1402.567	4763.92
1421.487	4548.58
1440.333	4397.92
1459.104	4164.25
1477.802	3808.25
1496.426	3614.58
1514.978	3494.25
1533.457	3292.25
1551.864	3064.25
1570.199	2974.58
1588.464	2937.92
1606.657	2811.58
1624.78	2645.58
1642.834	2637.25
1660.817	2630.92
1678.732	2546.92
1696.577	2356.92
1714.355	2148.92
1732.064	2086.58
1749.705	1925.25
1767.28	1795.92
1784.787	1810.25
1802.228	1793.92
1819.603	1707.58
1836.913	1695.25
1854.156	1737.92
1871.335	1793.25
1888.449	1787.58
1905.499	1734.58
1922.485	1681.25
1939.408	1586.58
1956.267	1385.92
1973.063	1146.25
1989.797	971.92
2006.469	863.58
2023.078	755.92
2039.627	663.25
2056.114	602.92
2072.54	575.25
2088.906	552.58
2105.211	508.25
2121.457	454.92
2137.643	421.58
2153.77	393.92
2169.838	372.58
2185.848	343.92
2201.799	331.25
2217.693	325.92
2233.529	320.25
2249.307	306.92
2265.029	289.58
2280.694	276.92
2296.302	266.25
2311.854	250.92
2327.351	249.25
2342.792	239.92
2358.178	238.92
2373.508	240.58
2388.785	231.58
2404.007	227.58
2419.174	223.25
2434.289	217.92
2449.349	211.92
2464.356	205.92
2479.311	201.92
2494.213	198.58
2509.062	198.58
2523.859	198.92
2538.605	189.58
2553.299	194.25
2567.941	186.58
2582.533	181.25
2597.073	171.58
2611.564	164.92
2626.004	155.25
2640.394	144.25
2654.734	138.25
2669.025	125.58
2683.266	129.92
2697.458	116.92
2711.602	115.58
2725.697	110.58
2739.744	112.25
2753.743	110.25
2767.695	100.92
2781.598	97.25
2795.455	96.92
2809.264	93.58
2823.026	91.92
2836.742	93.58
2850.412	90.58
2864.035	91.58
2877.613	84.92
2891.145	85.25
2904.631	74.58
2918.073	76.25
2931.469	76.58
2944.821	78.58
2958.128	79.58
2971.39	79.92
2984.609	84.58
2997.784	85.92
3010.915	90.58
3024.002	88.92
3037.046	91.92
3050.048	102.25
3063.006	113.25
3075.922	125.58
3088.795	135.92
3101.627	148.92
3114.416	155.92
3127.163	167.58
3139.869	179.92
3152.533	187.25
3165.157	199.58
3177.739	199.25
3190.28	219.25
3202.781	234.92
3215.241	258.58
3227.661	274.25
3240.041	297.92
3252.382	312.58
3264.682	327.92
3276.943	342.92
3289.165	329.25
3301.348	307.92
3313.492	290.58
3325.597	274.58
3337.663	260.25
3349.691	250.92
3361.681	222.92
3373.633	204.25
3385.547	184.25
3397.424	166.25
3409.263	147.58
3421.065	136.58
3432.829	128.25
3444.557	112.58
3456.247	95.58
3467.902	81.92
3479.519	69.92
3491.101	63.25
3502.646	52.58
3514.155	47.25
3525.629	35.92
3537.067	27.58
3548.469	24.25
3559.837	20.58
3571.169	19.58
3582.466	13.58
3593.728	9.58
3604.956	6.25
3616.149	3.58
3627.307	3.92
3638.432	2.92
3649.523	-0.75
3660.579	-1.75
3671.602	-0.42
3682.591	-6.42
3693.547	-4.75
3704.47	-3.75
3715.359	-7.75
3726.216	-8.42
3737.039	-13.75
3747.83	-14.42
3758.589	-16.42
3769.315	-12.42
3780.008	-13.08
3790.67	-15.42
3801.299	-13.42
3811.897	-14.75
3822.463	-19.75
3832.998	-18.42
3843.501	-15.75
3853.973	-18.75
3864.414	-19.08
3874.823	-12.75
3885.202	1.92
3895.55	-18.08
3905.868	-18.42
3916.155	-20.08
3926.411	-20.08
3936.638	-18.75
3946.834	-18.08
3957	-21.75
3967.137	-21.08
3977.244	-21.75
3987.321	-18.08
3997.369	-19.08
4007.388	-20.08
4017.377	-15.75
4027.338	-19.42
4037.269	-19.08
4047.172	-21.75
4057.046	-20.75
4066.891	-18.75
4076.708	-16.08
4086.497	-18.75
4096.257	-20.75
4105.989	2.58
4115.694	4.92
4125.37	-21.75
4135.019	-20.75
4142.237	-23.08