File: Data/Raman/2017-08-29 - Alluminum 2/Aug 29 2017 - Aluminum 2/blank 1_RamanShift_3.txt
Data from blank 1_RamanShift_3.txt Node

Date: Tue Aug 29 12:01:07 IDT 2017
User: aro
Spectrometer: QEPB0276
Trigger mode: 0
Integration Time (sec): 3.000000E1
Scans to average: 1
Electric dark correction enabled: true
Nonlinearity correction enabled: false
Boxcar width: 0
XAxis mode: Raman Shifts
Number of Pixels in Spectrum: 1044
>>>>>Begin Spectral Data<<<<<
160.701	36.12
184.826	499.12
208.845	2208.12
232.758	2304.12
256.565	2438.12
280.267	2577.12
303.865	2727.12
327.359	2853.12
350.751	2954.12
374.04	3286.12
397.228	3327.12
420.315	5293.12
443.302	3438.12
466.189	3083.12
488.978	2955.12
511.668	2210.12
534.261	1570.12
556.756	1350.12
579.155	1320.12
601.459	1299.12
623.667	1213.12
645.781	1751.12
667.8	1155.12
689.726	1036.12
711.56	995.12
733.301	995.12
754.951	1197.12
776.509	1106.12
797.977	1223.12
819.355	1154.12
840.644	1061.12
861.844	949.12
882.955	848.12
903.979	815.12
924.916	812.12
945.766	786.12
966.529	773.12
987.208	760.12
1007.801	783.12
1028.309	823.12
1048.734	843.12
1069.075	833.12
1089.333	814.12
1109.509	804.12
1129.602	721.12
1149.614	732.12
1169.545	772.12
1189.395	754.12
1209.165	772.12
1228.856	779.12
1248.467	756.12
1268	678.12
1287.455	671.12
1306.832	684.12
1326.132	670.12
1345.354	653.12
1364.501	649.12
1383.572	643.12
1402.567	606.12
1421.487	587.12
1440.333	608.12
1459.104	630.12
1477.802	596.12
1496.426	616.12
1514.978	651.12
1533.457	630.12
1551.864	600.12
1570.199	572.12
1588.464	565.12
1606.657	525.12
1624.78	523.12
1642.834	524.12
1660.817	537.12
1678.732	535.12
1696.577	533.12
1714.355	509.12
1732.064	473.12
1749.705	443.12
1767.28	424.12
1784.787	419.12
1802.228	432.12
1819.603	396.12
1836.913	380.12
1854.156	373.12
1871.335	375.12
1888.449	391.12
1905.499	368.12
1922.485	384.12
1939.408	381.12
1956.267	360.12
1973.063	335.12
1989.797	309.12
2006.469	294.12
2023.078	279.12
2039.627	278.12
2056.114	270.12
2072.54	285.12
2088.906	289.12
2105.211	277.12
2121.457	251.12
2137.643	244.12
2153.77	236.12
2169.838	213.12
2185.848	204.12
2201.799	198.12
2217.693	200.12
2233.529	204.12
2249.307	180.12
2265.029	182.12
2280.694	162.12
2296.302	152.12
2311.854	146.12
2327.351	146.12
2342.792	132.12
2358.178	118.12
2373.508	127.12
2388.785	117.12
2404.007	118.12
2419.174	117.12
2434.289	110.12
2449.349	95.12
2464.356	91.12
2479.311	87.12
2494.213	91.12
2509.062	94.12
2523.859	79.12
2538.605	80.12
2553.299	78.12
2567.941	71.12
2582.533	66.12
2597.073	65.12
2611.564	55.12
2626.004	49.12
2640.394	48.12
2654.734	40.12
2669.025	27.12
2683.266	30.12
2697.458	27.12
2711.602	25.12
2725.697	14.12
2739.744	24.12
2753.743	21.12
2767.695	24.12
2781.598	16.12
2795.455	4.12
2809.264	6.12
2823.026	4.12
2836.742	8.12
2850.412	-0.88
2864.035	-4.88
2877.613	-4.88
2891.145	-8.88
2904.631	-14.88
2918.073	-20.88
2931.469	-16.88
2944.821	-28.88
2958.128	-28.88
2971.39	-35.88
2984.609	-35.88
2997.784	-32.88
3010.915	-34.88
3024.002	-43.88
3037.046	-40.88
3050.048	-48.88
3063.006	-54.88
3075.922	-45.88
3088.795	-54.88
3101.627	-51.88
3114.416	-49.88
3127.163	-55.88
3139.869	-56.88
3152.533	-60.88
3165.157	-66.88
3177.739	-65.88
3190.28	-70.88
3202.781	-68.88
3215.241	-70.88
3227.661	-73.88
3240.041	-74.88
3252.382	-71.88
3264.682	-70.88
3276.943	-74.88
3289.165	-72.88
3301.348	-79.88
3313.492	-80.88
3325.597	-83.88
3337.663	-83.88
3349.691	-80.88
3361.681	-82.88
3373.633	-79.88
3385.547	-79.88
3397.424	-77.88
3409.263	-83.88
3421.065	-86.88
3432.829	-87.88
3444.557	-82.88
3456.247	-86.88
3467.902	-92.88
3479.519	-81.88
3491.101	-87.88
3502.646	-84.88
3514.155	-80.88
3525.629	-88.88
3537.067	-91.88
3548.469	-93.88
3559.837	-90.88
3571.169	-93.88
3582.466	-91.88
3593.728	-88.88
3604.956	-92.88
3616.149	-94.88
3627.307	-94.88
3638.432	-93.88
3649.523	-96.88
3660.579	-96.88
3671.602	-93.88
3682.591	-91.88
3693.547	-93.88
3704.47	-97.88
3715.359	-96.88
3726.216	-99.88
3737.039	-100.88
3747.83	-96.88
3758.589	-100.88
3769.315	-100.88
3780.008	-107.88
3790.67	-96.88
3801.299	-96.88
3811.897	-95.88
3822.463	-94.88
3832.998	-91.88
3843.501	-92.88
3853.973	-90.88
3864.414	-95.88
3874.823	-51.88
3885.202	99.12
3895.55	-76.88
3905.868	-100.88
3916.155	-104.88
3926.411	-99.88
3936.638	-103.88
3946.834	-100.88
3957	-96.88
3967.137	-88.88
3977.244	-95.88
3987.321	-95.88
3997.369	-99.88
4007.388	-90.88
4017.377	-91.88
4027.338	-91.88
4037.269	-94.88
4047.172	-96.88
4057.046	-96.88
4066.891	-98.88
4076.708	-99.88
4086.497	-96.88
4096.257	-95.88
4105.989	55.12
4115.694	31.12
4125.37	-97.88
4135.019	-95.88
4142.237	-104.88