File: Data/Raman/2017-08-29 - Alluminum 2/Aug 29 2017 - Aluminum 2/blank 3_RamanShift_2.txt
Data from blank 3_RamanShift_2.txt Node

Date: Tue Aug 29 12:47:07 IDT 2017
User: aro
Spectrometer: QEPB0276
Trigger mode: 0
Integration Time (sec): 3.000000E1
Scans to average: 1
Electric dark correction enabled: true
Nonlinearity correction enabled: false
Boxcar width: 0
XAxis mode: Raman Shifts
Number of Pixels in Spectrum: 1044
>>>>>Begin Spectral Data<<<<<
160.701	35.88
184.826	441.88
208.845	1859.88
232.758	1996.88
256.565	2172.88
280.267	2322.88
303.865	2477.88
327.359	2609.88
350.751	2729.88
374.04	2971.88
397.228	3003.88
420.315	4548.88
443.302	3099.88
466.189	2812.88
488.978	2703.88
511.668	2072.88
534.261	1493.88
556.756	1328.88
579.155	1305.88
601.459	1278.88
623.667	1219.88
645.781	1619.88
667.8	1141.88
689.726	1055.88
711.56	1021.88
733.301	1049.88
754.951	1215.88
776.509	1148.88
797.977	1228.88
819.355	1201.88
840.644	1137.88
861.844	1014.88
882.955	954.88
903.979	914.88
924.916	909.88
945.766	904.88
966.529	894.88
987.208	864.88
1007.801	891.88
1028.309	921.88
1048.734	945.88
1069.075	943.88
1089.333	940.88
1109.509	911.88
1129.602	837.88
1149.614	832.88
1169.545	868.88
1189.395	852.88
1209.165	848.88
1228.856	878.88
1248.467	844.88
1268	779.88
1287.455	760.88
1306.832	789.88
1326.132	761.88
1345.354	722.88
1364.501	717.88
1383.572	725.88
1402.567	692.88
1421.487	665.88
1440.333	672.88
1459.104	671.88
1477.802	644.88
1496.426	666.88
1514.978	718.88
1533.457	712.88
1551.864	679.88
1570.199	647.88
1588.464	628.88
1606.657	616.88
1624.78	591.88
1642.834	587.88
1660.817	603.88
1678.732	576.88
1696.577	573.88
1714.355	595.88
1732.064	575.88
1749.705	522.88
1767.28	488.88
1784.787	475.88
1802.228	506.88
1819.603	498.88
1836.913	472.88
1854.156	439.88
1871.335	457.88
1888.449	437.88
1905.499	427.88
1922.485	446.88
1939.408	469.88
1956.267	466.88
1973.063	427.88
1989.797	394.88
2006.469	391.88
2023.078	374.88
2039.627	349.88
2056.114	345.88
2072.54	352.88
2088.906	366.88
2105.211	363.88
2121.457	358.88
2137.643	337.88
2153.77	329.88
2169.838	316.88
2185.848	303.88
2201.799	290.88
2217.693	295.88
2233.529	288.88
2249.307	278.88
2265.029	270.88
2280.694	259.88
2296.302	249.88
2311.854	246.88
2327.351	258.88
2342.792	232.88
2358.178	221.88
2373.508	227.88
2388.785	227.88
2404.007	213.88
2419.174	211.88
2434.289	208.88
2449.349	198.88
2464.356	184.88
2479.311	179.88
2494.213	182.88
2509.062	189.88
2523.859	172.88
2538.605	169.88
2553.299	175.88
2567.941	181.88
2582.533	168.88
2597.073	167.88
2611.564	159.88
2626.004	147.88
2640.394	145.88
2654.734	133.88
2669.025	117.88
2683.266	117.88
2697.458	99.88
2711.602	89.88
2725.697	79.88
2739.744	80.88
2753.743	79.88
2767.695	92.88
2781.598	79.88
2795.455	77.88
2809.264	70.88
2823.026	72.88
2836.742	78.88
2850.412	62.88
2864.035	62.88
2877.613	51.88
2891.145	48.88
2904.631	43.88
2918.073	29.88
2931.469	32.88
2944.821	30.88
2958.128	18.88
2971.39	13.88
2984.609	16.88
2997.784	16.88
3010.915	10.88
3024.002	4.88
3037.046	5.88
3050.048	-3.12
3063.006	-8.12
3075.922	-9.12
3088.795	-17.12
3101.627	-9.12
3114.416	-4.12
3127.163	-13.12
3139.869	-9.12
3152.533	-18.12
3165.157	-21.12
3177.739	-24.12
3190.28	-31.12
3202.781	-34.12
3215.241	-40.12
3227.661	-46.12
3240.041	-43.12
3252.382	-47.12
3264.682	-41.12
3276.943	-40.12
3289.165	-46.12
3301.348	-49.12
3313.492	-52.12
3325.597	-57.12
3337.663	-61.12
3349.691	-61.12
3361.681	-59.12
3373.633	-59.12
3385.547	-61.12
3397.424	-57.12
3409.263	-61.12
3421.065	-60.12
3432.829	-59.12
3444.557	-60.12
3456.247	-67.12
3467.902	-74.12
3479.519	-65.12
3491.101	-62.12
3502.646	-63.12
3514.155	-67.12
3525.629	-66.12
3537.067	-71.12
3548.469	-73.12
3559.837	-68.12
3571.169	-75.12
3582.466	-68.12
3593.728	-69.12
3604.956	-72.12
3616.149	-82.12
3627.307	-79.12
3638.432	-81.12
3649.523	-83.12
3660.579	-82.12
3671.602	-79.12
3682.591	-79.12
3693.547	-75.12
3704.47	-78.12
3715.359	-75.12
3726.216	-81.12
3737.039	-80.12
3747.83	-80.12
3758.589	-80.12
3769.315	-80.12
3780.008	-84.12
3790.67	-81.12
3801.299	-79.12
3811.897	-80.12
3822.463	-78.12
3832.998	-73.12
3843.501	-79.12
3853.973	-73.12
3864.414	-80.12
3874.823	-44.12
3885.202	47.88
3895.55	-66.12
3905.868	-81.12
3916.155	-83.12
3926.411	-81.12
3936.638	-87.12
3946.834	-80.12
3957	-83.12
3967.137	-73.12
3977.244	-83.12
3987.321	-80.12
3997.369	-82.12
4007.388	-78.12
4017.377	-80.12
4027.338	-77.12
4037.269	-82.12
4047.172	-76.12
4057.046	-77.12
4066.891	-84.12
4076.708	-80.12
4086.497	-83.12
4096.257	-81.12
4105.989	40.88
4115.694	21.88
4125.37	-86.12
4135.019	-85.12
4142.237	-84.12