File: Data/Raman/2017-08-29 - Alluminum 2/Aug 29 2017 - Aluminum 2/blank 2_RamanShift_3.txt
Data from blank 2_RamanShift_3.txt Node

Date: Tue Aug 29 12:24:37 IDT 2017
User: aro
Spectrometer: QEPB0276
Trigger mode: 0
Integration Time (sec): 3.000000E1
Scans to average: 1
Electric dark correction enabled: true
Nonlinearity correction enabled: false
Boxcar width: 0
XAxis mode: Raman Shifts
Number of Pixels in Spectrum: 1044
>>>>>Begin Spectral Data<<<<<
160.701	45.88
184.826	465.88
208.845	2101.88
232.758	2236.88
256.565	2413.88
280.267	2629.88
303.865	2801.88
327.359	2959.88
350.751	3101.88
374.04	3500.88
397.228	3552.88
420.315	5899.88
443.302	3668.88
466.189	3256.88
488.978	3136.88
511.668	2308.88
534.261	1495.88
556.756	1264.88
579.155	1243.88
601.459	1189.88
623.667	1117.88
645.781	1745.88
667.8	1035.88
689.726	913.88
711.56	864.88
733.301	889.88
754.951	1139.88
776.509	1018.88
797.977	1137.88
819.355	1080.88
840.644	977.88
861.844	819.88
882.955	731.88
903.979	701.88
924.916	683.88
945.766	674.88
966.529	652.88
987.208	634.88
1007.801	657.88
1028.309	682.88
1048.734	744.88
1069.075	737.88
1089.333	717.88
1109.509	661.88
1129.602	603.88
1149.614	608.88
1169.545	647.88
1189.395	641.88
1209.165	645.88
1228.856	650.88
1248.467	607.88
1268	553.88
1287.455	532.88
1306.832	551.88
1326.132	549.88
1345.354	519.88
1364.501	524.88
1383.572	510.88
1402.567	469.88
1421.487	464.88
1440.333	473.88
1459.104	481.88
1477.802	481.88
1496.426	484.88
1514.978	528.88
1533.457	479.88
1551.864	460.88
1570.199	436.88
1588.464	441.88
1606.657	420.88
1624.78	402.88
1642.834	416.88
1660.817	431.88
1678.732	423.88
1696.577	414.88
1714.355	404.88
1732.064	374.88
1749.705	338.88
1767.28	322.88
1784.787	323.88
1802.228	332.88
1819.603	304.88
1836.913	292.88
1854.156	285.88
1871.335	281.88
1888.449	286.88
1905.499	290.88
1922.485	296.88
1939.408	289.88
1956.267	279.88
1973.063	246.88
1989.797	222.88
2006.469	222.88
2023.078	214.88
2039.627	213.88
2056.114	213.88
2072.54	218.88
2088.906	228.88
2105.211	219.88
2121.457	198.88
2137.643	178.88
2153.77	182.88
2169.838	165.88
2185.848	155.88
2201.799	146.88
2217.693	140.88
2233.529	148.88
2249.307	137.88
2265.029	127.88
2280.694	115.88
2296.302	110.88
2311.854	96.88
2327.351	114.88
2342.792	88.88
2358.178	90.88
2373.508	99.88
2388.785	88.88
2404.007	82.88
2419.174	82.88
2434.289	78.88
2449.349	69.88
2464.356	55.88
2479.311	62.88
2494.213	59.88
2509.062	63.88
2523.859	52.88
2538.605	52.88
2553.299	49.88
2567.941	48.88
2582.533	50.88
2597.073	45.88
2611.564	39.88
2626.004	32.88
2640.394	32.88
2654.734	28.88
2669.025	15.88
2683.266	18.88
2697.458	13.88
2711.602	4.88
2725.697	0.88
2739.744	6.88
2753.743	0.88
2767.695	0.88
2781.598	-2.12
2795.455	2.88
2809.264	-7.12
2823.026	1.88
2836.742	1.88
2850.412	-8.12
2864.035	-12.12
2877.613	-17.12
2891.145	-16.12
2904.631	-24.12
2918.073	-29.12
2931.469	-31.12
2944.821	-29.12
2958.128	-33.12
2971.39	-33.12
2984.609	-41.12
2997.784	-39.12
3010.915	-43.12
3024.002	-46.12
3037.046	-52.12
3050.048	-49.12
3063.006	-56.12
3075.922	-55.12
3088.795	-61.12
3101.627	-53.12
3114.416	-54.12
3127.163	-60.12
3139.869	-53.12
3152.533	-58.12
3165.157	-61.12
3177.739	-56.12
3190.28	-68.12
3202.781	-72.12
3215.241	-71.12
3227.661	-70.12
3240.041	-66.12
3252.382	-70.12
3264.682	-67.12
3276.943	-72.12
3289.165	-68.12
3301.348	-72.12
3313.492	-82.12
3325.597	-83.12
3337.663	-88.12
3349.691	-84.12
3361.681	-83.12
3373.633	-77.12
3385.547	-79.12
3397.424	-78.12
3409.263	-82.12
3421.065	-80.12
3432.829	-81.12
3444.557	-83.12
3456.247	-83.12
3467.902	-87.12
3479.519	-75.12
3491.101	-80.12
3502.646	-83.12
3514.155	-80.12
3525.629	-89.12
3537.067	-89.12
3548.469	-93.12
3559.837	-79.12
3571.169	-91.12
3582.466	-81.12
3593.728	-86.12
3604.956	-86.12
3616.149	-94.12
3627.307	-91.12
3638.432	-90.12
3649.523	-88.12
3660.579	-90.12
3671.602	-88.12
3682.591	-87.12
3693.547	-85.12
3704.47	-87.12
3715.359	-92.12
3726.216	-95.12
3737.039	-95.12
3747.83	-97.12
3758.589	-93.12
3769.315	-95.12
3780.008	-99.12
3790.67	-92.12
3801.299	-93.12
3811.897	-92.12
3822.463	-91.12
3832.998	-91.12
3843.501	-90.12
3853.973	-84.12
3864.414	-90.12
3874.823	-45.12
3885.202	100.88
3895.55	-65.12
3905.868	-94.12
3916.155	-87.12
3926.411	-93.12
3936.638	-97.12
3946.834	-94.12
3957	-95.12
3967.137	-92.12
3977.244	-90.12
3987.321	-94.12
3997.369	-96.12
4007.388	-84.12
4017.377	-84.12
4027.338	-89.12
4037.269	-90.12
4047.172	-91.12
4057.046	-90.12
4066.891	-95.12
4076.708	-91.12
4086.497	-94.12
4096.257	-94.12
4105.989	58.88
4115.694	36.88
4125.37	-89.12
4135.019	-97.12
4142.237	-100.12