File: Data/Raman/2017-08-29 - Alluminum 2/Aug 29 2017 - Aluminum 2/blank 1_RamanShift_1.txt
Data from blank 1_RamanShift_1.txt Node

Date: Tue Aug 29 12:00:07 IDT 2017
User: aro
Spectrometer: QEPB0276
Trigger mode: 0
Integration Time (sec): 3.000000E1
Scans to average: 1
Electric dark correction enabled: true
Nonlinearity correction enabled: false
Boxcar width: 0
XAxis mode: Raman Shifts
Number of Pixels in Spectrum: 1044
>>>>>Begin Spectral Data<<<<<
160.701	40
184.826	514
208.845	2293
232.758	2411
256.565	2543
280.267	2682
303.865	2831
327.359	2962
350.751	3073
374.04	3376
397.228	3470
420.315	5443
443.302	3549
466.189	3188
488.978	3086
511.668	2327
534.261	1645
556.756	1423
579.155	1393
601.459	1353
623.667	1287
645.781	1841
667.8	1219
689.726	1079
711.56	1057
733.301	1066
754.951	1266
776.509	1185
797.977	1293
819.355	1224
840.644	1132
861.844	1002
882.955	908
903.979	874
924.916	871
945.766	859
966.529	836
987.208	808
1007.801	844
1028.309	867
1048.734	908
1069.075	895
1089.333	884
1109.509	843
1129.602	781
1149.614	781
1169.545	817
1189.395	817
1209.165	820
1228.856	842
1248.467	804
1268	742
1287.455	721
1306.832	750
1326.132	758
1345.354	716
1364.501	693
1383.572	694
1402.567	655
1421.487	652
1440.333	665
1459.104	674
1477.802	667
1496.426	677
1514.978	716
1533.457	693
1551.864	649
1570.199	626
1588.464	605
1606.657	581
1624.78	562
1642.834	568
1660.817	593
1678.732	577
1696.577	566
1714.355	557
1732.064	530
1749.705	477
1767.28	466
1784.787	457
1802.228	469
1819.603	443
1836.913	411
1854.156	399
1871.335	417
1888.449	416
1905.499	403
1922.485	410
1939.408	416
1956.267	395
1973.063	355
1989.797	323
2006.469	321
2023.078	317
2039.627	304
2056.114	299
2072.54	304
2088.906	310
2105.211	301
2121.457	281
2137.643	262
2153.77	255
2169.838	240
2185.848	214
2201.799	215
2217.693	213
2233.529	208
2249.307	198
2265.029	193
2280.694	183
2296.302	168
2311.854	167
2327.351	173
2342.792	145
2358.178	142
2373.508	142
2388.785	138
2404.007	124
2419.174	122
2434.289	121
2449.349	111
2464.356	93
2479.311	94
2494.213	98
2509.062	109
2523.859	96
2538.605	93
2553.299	93
2567.941	85
2582.533	80
2597.073	74
2611.564	69
2626.004	63
2640.394	60
2654.734	49
2669.025	40
2683.266	42
2697.458	30
2711.602	24
2725.697	23
2739.744	28
2753.743	27
2767.695	28
2781.598	12
2795.455	13
2809.264	14
2823.026	14
2836.742	15
2850.412	7
2864.035	5
2877.613	-1
2891.145	-2
2904.631	-17
2918.073	-16
2931.469	-14
2944.821	-18
2958.128	-28
2971.39	-30
2984.609	-35
2997.784	-26
3010.915	-35
3024.002	-41
3037.046	-40
3050.048	-43
3063.006	-48
3075.922	-48
3088.795	-49
3101.627	-45
3114.416	-47
3127.163	-50
3139.869	-55
3152.533	-55
3165.157	-57
3177.739	-58
3190.28	-64
3202.781	-68
3215.241	-71
3227.661	-67
3240.041	-68
3252.382	-74
3264.682	-71
3276.943	-72
3289.165	-74
3301.348	-78
3313.492	-83
3325.597	-82
3337.663	-89
3349.691	-83
3361.681	-77
3373.633	-78
3385.547	-83
3397.424	-75
3409.263	-82
3421.065	-83
3432.829	-83
3444.557	-87
3456.247	-88
3467.902	-90
3479.519	-89
3491.101	-86
3502.646	-87
3514.155	-86
3525.629	-84
3537.067	-92
3548.469	-94
3559.837	-90
3571.169	-89
3582.466	-97
3593.728	-92
3604.956	-91
3616.149	-92
3627.307	-95
3638.432	-89
3649.523	-92
3660.579	-92
3671.602	-92
3682.591	-95
3693.547	-95
3704.47	-99
3715.359	-95
3726.216	-102
3737.039	-98
3747.83	-98
3758.589	-100
3769.315	-98
3780.008	-103
3790.67	-96
3801.299	-99
3811.897	-93
3822.463	-93
3832.998	-90
3843.501	-95
3853.973	-94
3864.414	-97
3874.823	-48
3885.202	86
3895.55	-72
3905.868	-96
3916.155	-95
3926.411	-96
3936.638	-98
3946.834	-94
3957	-92
3967.137	-95
3977.244	-100
3987.321	-99
3997.369	-96
4007.388	-95
4017.377	-96
4027.338	-92
4037.269	-98
4047.172	-94
4057.046	-94
4066.891	-99
4076.708	-92
4086.497	-94
4096.257	-98
4105.989	53
4115.694	36
4125.37	-96
4135.019	-98
4142.237	-100