File: Data/Raman/2017-08-29 - Alluminum 2/Aug 29 2017 - Aluminum 2/blank 3_RamanShift_1.txt
Data from blank 3_RamanShift_1.txt Node

Date: Tue Aug 29 12:46:37 IDT 2017
User: aro
Spectrometer: QEPB0276
Trigger mode: 0
Integration Time (sec): 3.000000E1
Scans to average: 1
Electric dark correction enabled: true
Nonlinearity correction enabled: false
Boxcar width: 0
XAxis mode: Raman Shifts
Number of Pixels in Spectrum: 1044
>>>>>Begin Spectral Data<<<<<
160.701	27.38
184.826	433.38
208.845	1889.38
232.758	2040.38
256.565	2185.38
280.267	2342.38
303.865	2503.38
327.359	2629.38
350.751	2743.38
374.04	2992.38
397.228	3039.38
420.315	4547.38
443.302	3132.38
466.189	2840.38
488.978	2728.38
511.668	2117.38
534.261	1524.38
556.756	1358.38
579.155	1321.38
601.459	1294.38
623.667	1222.38
645.781	1616.38
667.8	1153.38
689.726	1072.38
711.56	1053.38
733.301	1062.38
754.951	1213.38
776.509	1158.38
797.977	1259.38
819.355	1197.38
840.644	1128.38
861.844	1016.38
882.955	952.38
903.979	939.38
924.916	926.38
945.766	921.38
966.529	900.38
987.208	880.38
1007.801	911.38
1028.309	940.38
1048.734	956.38
1069.075	953.38
1089.333	944.38
1109.509	903.38
1129.602	844.38
1149.614	866.38
1169.545	888.38
1189.395	870.38
1209.165	874.38
1228.856	897.38
1248.467	868.38
1268	805.38
1287.455	780.38
1306.832	801.38
1326.132	780.38
1345.354	731.38
1364.501	733.38
1383.572	738.38
1402.567	708.38
1421.487	680.38
1440.333	688.38
1459.104	691.38
1477.802	665.38
1496.426	677.38
1514.978	721.38
1533.457	702.38
1551.864	708.38
1570.199	667.38
1588.464	649.38
1606.657	619.38
1624.78	595.38
1642.834	602.38
1660.817	614.38
1678.732	603.38
1696.577	592.38
1714.355	608.38
1732.064	586.38
1749.705	527.38
1767.28	483.38
1784.787	465.38
1802.228	513.38
1819.603	504.38
1836.913	469.38
1854.156	457.38
1871.335	466.38
1888.449	448.38
1905.499	439.38
1922.485	458.38
1939.408	469.38
1956.267	465.38
1973.063	436.38
1989.797	397.38
2006.469	387.38
2023.078	386.38
2039.627	351.38
2056.114	350.38
2072.54	371.38
2088.906	378.38
2105.211	355.38
2121.457	355.38
2137.643	340.38
2153.77	330.38
2169.838	320.38
2185.848	305.38
2201.799	292.38
2217.693	293.38
2233.529	299.38
2249.307	283.38
2265.029	280.38
2280.694	257.38
2296.302	247.38
2311.854	255.38
2327.351	265.38
2342.792	236.38
2358.178	228.38
2373.508	227.38
2388.785	235.38
2404.007	228.38
2419.174	216.38
2434.289	215.38
2449.349	198.38
2464.356	192.38
2479.311	196.38
2494.213	187.38
2509.062	183.38
2523.859	181.38
2538.605	176.38
2553.299	175.38
2567.941	180.38
2582.533	174.38
2597.073	166.38
2611.564	172.38
2626.004	157.38
2640.394	149.38
2654.734	139.38
2669.025	118.38
2683.266	117.38
2697.458	106.38
2711.602	97.38
2725.697	85.38
2739.744	91.38
2753.743	87.38
2767.695	91.38
2781.598	85.38
2795.455	82.38
2809.264	75.38
2823.026	76.38
2836.742	75.38
2850.412	65.38
2864.035	70.38
2877.613	63.38
2891.145	54.38
2904.631	44.38
2918.073	32.38
2931.469	33.38
2944.821	25.38
2958.128	22.38
2971.39	19.38
2984.609	12.38
2997.784	17.38
3010.915	14.38
3024.002	9.38
3037.046	4.38
3050.048	0.38
3063.006	-11.62
3075.922	-4.62
3088.795	-8.62
3101.627	-8.62
3114.416	-5.62
3127.163	-11.62
3139.869	-7.62
3152.533	-18.62
3165.157	-15.62
3177.739	-20.62
3190.28	-27.62
3202.781	-32.62
3215.241	-32.62
3227.661	-39.62
3240.041	-38.62
3252.382	-40.62
3264.682	-40.62
3276.943	-43.62
3289.165	-46.62
3301.348	-47.62
3313.492	-52.62
3325.597	-57.62
3337.663	-61.62
3349.691	-57.62
3361.681	-53.62
3373.633	-53.62
3385.547	-52.62
3397.424	-53.62
3409.263	-59.62
3421.065	-59.62
3432.829	-56.62
3444.557	-59.62
3456.247	-57.62
3467.902	-61.62
3479.519	-57.62
3491.101	-65.62
3502.646	-62.62
3514.155	-64.62
3525.629	-69.62
3537.067	-66.62
3548.469	-68.62
3559.837	-67.62
3571.169	-70.62
3582.466	-67.62
3593.728	-67.62
3604.956	-69.62
3616.149	-76.62
3627.307	-80.62
3638.432	-77.62
3649.523	-80.62
3660.579	-77.62
3671.602	-71.62
3682.591	-75.62
3693.547	-71.62
3704.47	-77.62
3715.359	-75.62
3726.216	-78.62
3737.039	-80.62
3747.83	-79.62
3758.589	-78.62
3769.315	-76.62
3780.008	-88.62
3790.67	-75.62
3801.299	-80.62
3811.897	-79.62
3822.463	-79.62
3832.998	-76.62
3843.501	-78.62
3853.973	-75.62
3864.414	-73.62
3874.823	-43.62
3885.202	41.38
3895.55	-64.62
3905.868	-76.62
3916.155	-78.62
3926.411	-82.62
3936.638	-81.62
3946.834	-74.62
3957	-80.62
3967.137	-79.62
3977.244	-82.62
3987.321	-77.62
3997.369	-84.62
4007.388	-73.62
4017.377	-72.62
4027.338	-73.62
4037.269	-79.62
4047.172	-81.62
4057.046	-76.62
4066.891	-77.62
4076.708	-79.62
4086.497	-75.62
4096.257	-83.62
4105.989	42.38
4115.694	26.38
4125.37	-77.62
4135.019	-80.62
4142.237	-83.62