File: Data/Raman/2017-08-29 - Alluminum 2/Aug 29 2017 - Aluminum 2/blank 2_RamanShift_1.txt
Data from blank 2_RamanShift_1.txt Node

Date: Tue Aug 29 12:23:37 IDT 2017
User: aro
Spectrometer: QEPB0276
Trigger mode: 0
Integration Time (sec): 3.000000E1
Scans to average: 1
Electric dark correction enabled: true
Nonlinearity correction enabled: false
Boxcar width: 0
XAxis mode: Raman Shifts
Number of Pixels in Spectrum: 1044
>>>>>Begin Spectral Data<<<<<
160.701	36.12
184.826	471.12
208.845	2074.12
232.758	2209.12
256.565	2384.12
280.267	2604.12
303.865	2808.12
327.359	2920.12
350.751	3089.12
374.04	3475.12
397.228	3520.12
420.315	5833.12
443.302	3641.12
466.189	3248.12
488.978	3093.12
511.668	2249.12
534.261	1503.12
556.756	1271.12
579.155	1235.12
601.459	1201.12
623.667	1104.12
645.781	1727.12
667.8	1036.12
689.726	902.12
711.56	857.12
733.301	887.12
754.951	1129.12
776.509	1009.12
797.977	1133.12
819.355	1068.12
840.644	968.12
861.844	819.12
882.955	730.12
903.979	697.12
924.916	686.12
945.766	661.12
966.529	660.12
987.208	637.12
1007.801	658.12
1028.309	690.12
1048.734	730.12
1069.075	723.12
1089.333	707.12
1109.509	657.12
1129.602	594.12
1149.614	600.12
1169.545	640.12
1189.395	643.12
1209.165	625.12
1228.856	648.12
1248.467	619.12
1268	550.12
1287.455	536.12
1306.832	550.12
1326.132	553.12
1345.354	516.12
1364.501	512.12
1383.572	500.12
1402.567	470.12
1421.487	453.12
1440.333	477.12
1459.104	479.12
1477.802	480.12
1496.426	498.12
1514.978	512.12
1533.457	485.12
1551.864	454.12
1570.199	434.12
1588.464	435.12
1606.657	423.12
1624.78	398.12
1642.834	418.12
1660.817	432.12
1678.732	424.12
1696.577	419.12
1714.355	396.12
1732.064	372.12
1749.705	338.12
1767.28	326.12
1784.787	322.12
1802.228	324.12
1819.603	302.12
1836.913	280.12
1854.156	286.12
1871.335	290.12
1888.449	291.12
1905.499	287.12
1922.485	291.12
1939.408	291.12
1956.267	275.12
1973.063	249.12
1989.797	219.12
2006.469	230.12
2023.078	221.12
2039.627	206.12
2056.114	210.12
2072.54	222.12
2088.906	211.12
2105.211	204.12
2121.457	194.12
2137.643	180.12
2153.77	174.12
2169.838	160.12
2185.848	159.12
2201.799	146.12
2217.693	148.12
2233.529	145.12
2249.307	141.12
2265.029	132.12
2280.694	119.12
2296.302	118.12
2311.854	107.12
2327.351	121.12
2342.792	97.12
2358.178	90.12
2373.508	93.12
2388.785	86.12
2404.007	93.12
2419.174	85.12
2434.289	78.12
2449.349	68.12
2464.356	61.12
2479.311	61.12
2494.213	56.12
2509.062	59.12
2523.859	53.12
2538.605	59.12
2553.299	59.12
2567.941	50.12
2582.533	52.12
2597.073	45.12
2611.564	37.12
2626.004	29.12
2640.394	29.12
2654.734	30.12
2669.025	16.12
2683.266	18.12
2697.458	13.12
2711.602	8.12
2725.697	2.12
2739.744	9.12
2753.743	5.12
2767.695	7.12
2781.598	1.12
2795.455	2.12
2809.264	-3.88
2823.026	-1.88
2836.742	1.12
2850.412	-4.88
2864.035	-9.88
2877.613	-16.88
2891.145	-15.88
2904.631	-19.88
2918.073	-29.88
2931.469	-21.88
2944.821	-28.88
2958.128	-34.88
2971.39	-33.88
2984.609	-38.88
2997.784	-32.88
3010.915	-39.88
3024.002	-48.88
3037.046	-42.88
3050.048	-47.88
3063.006	-49.88
3075.922	-48.88
3088.795	-52.88
3101.627	-50.88
3114.416	-48.88
3127.163	-46.88
3139.869	-50.88
3152.533	-54.88
3165.157	-60.88
3177.739	-54.88
3190.28	-58.88
3202.781	-69.88
3215.241	-67.88
3227.661	-67.88
3240.041	-70.88
3252.382	-67.88
3264.682	-70.88
3276.943	-66.88
3289.165	-63.88
3301.348	-70.88
3313.492	-68.88
3325.597	-79.88
3337.663	-78.88
3349.691	-72.88
3361.681	-70.88
3373.633	-75.88
3385.547	-78.88
3397.424	-73.88
3409.263	-81.88
3421.065	-76.88
3432.829	-78.88
3444.557	-76.88
3456.247	-80.88
3467.902	-82.88
3479.519	-75.88
3491.101	-78.88
3502.646	-76.88
3514.155	-77.88
3525.629	-81.88
3537.067	-81.88
3548.469	-81.88
3559.837	-77.88
3571.169	-83.88
3582.466	-79.88
3593.728	-83.88
3604.956	-86.88
3616.149	-89.88
3627.307	-86.88
3638.432	-85.88
3649.523	-88.88
3660.579	-88.88
3671.602	-84.88
3682.591	-87.88
3693.547	-81.88
3704.47	-89.88
3715.359	-86.88
3726.216	-92.88
3737.039	-91.88
3747.83	-86.88
3758.589	-87.88
3769.315	-90.88
3780.008	-96.88
3790.67	-92.88
3801.299	-92.88
3811.897	-93.88
3822.463	-90.88
3832.998	-86.88
3843.501	-90.88
3853.973	-87.88
3864.414	-83.88
3874.823	-46.88
3885.202	94.12
3895.55	-65.88
3905.868	-87.88
3916.155	-84.88
3926.411	-88.88
3936.638	-86.88
3946.834	-87.88
3957	-85.88
3967.137	-82.88
3977.244	-89.88
3987.321	-86.88
3997.369	-86.88
4007.388	-85.88
4017.377	-82.88
4027.338	-82.88
4037.269	-87.88
4047.172	-84.88
4057.046	-86.88
4066.891	-91.88
4076.708	-93.88
4086.497	-90.88
4096.257	-91.88
4105.989	59.12
4115.694	39.12
4125.37	-93.88
4135.019	-91.88
4142.237	-97.88