File: Data/Raman/2017-08-29 - Alluminum 2/Aug 29 2017 - Aluminum 2/blank 3_RamanShift_3.txt
Data from blank 3_RamanShift_3.txt Node

Date: Tue Aug 29 12:48:07 IDT 2017
User: aro
Spectrometer: QEPB0276
Trigger mode: 0
Integration Time (sec): 3.000000E1
Scans to average: 1
Electric dark correction enabled: true
Nonlinearity correction enabled: false
Boxcar width: 0
XAxis mode: Raman Shifts
Number of Pixels in Spectrum: 1044
>>>>>Begin Spectral Data<<<<<
160.701	26.5
184.826	434.5
208.845	1863.5
232.758	1984.5
256.565	2155.5
280.267	2304.5
303.865	2497.5
327.359	2581.5
350.751	2687.5
374.04	2927.5
397.228	2992.5
420.315	4490.5
443.302	3067.5
466.189	2772.5
488.978	2693.5
511.668	2074.5
534.261	1488.5
556.756	1327.5
579.155	1292.5
601.459	1269.5
623.667	1228.5
645.781	1599.5
667.8	1139.5
689.726	1048.5
711.56	1014.5
733.301	1034.5
754.951	1206.5
776.509	1141.5
797.977	1231.5
819.355	1193.5
840.644	1123.5
861.844	1004.5
882.955	929.5
903.979	926.5
924.916	889.5
945.766	902.5
966.529	893.5
987.208	861.5
1007.801	882.5
1028.309	904.5
1048.734	938.5
1069.075	929.5
1089.333	919.5
1109.509	899.5
1129.602	900.5
1149.614	826.5
1169.545	869.5
1189.395	858.5
1209.165	851.5
1228.856	872.5
1248.467	861.5
1268	783.5
1287.455	757.5
1306.832	782.5
1326.132	763.5
1345.354	710.5
1364.501	714.5
1383.572	729.5
1402.567	705.5
1421.487	668.5
1440.333	682.5
1459.104	680.5
1477.802	639.5
1496.426	659.5
1514.978	711.5
1533.457	705.5
1551.864	698.5
1570.199	660.5
1588.464	631.5
1606.657	609.5
1624.78	599.5
1642.834	598.5
1660.817	607.5
1678.732	579.5
1696.577	572.5
1714.355	599.5
1732.064	575.5
1749.705	526.5
1767.28	470.5
1784.787	477.5
1802.228	504.5
1819.603	492.5
1836.913	465.5
1854.156	457.5
1871.335	448.5
1888.449	436.5
1905.499	429.5
1922.485	449.5
1939.408	479.5
1956.267	454.5
1973.063	427.5
1989.797	394.5
2006.469	390.5
2023.078	380.5
2039.627	356.5
2056.114	344.5
2072.54	357.5
2088.906	366.5
2105.211	365.5
2121.457	345.5
2137.643	340.5
2153.77	328.5
2169.838	317.5
2185.848	298.5
2201.799	296.5
2217.693	287.5
2233.529	294.5
2249.307	289.5
2265.029	274.5
2280.694	258.5
2296.302	253.5
2311.854	236.5
2327.351	269.5
2342.792	237.5
2358.178	227.5
2373.508	237.5
2388.785	225.5
2404.007	225.5
2419.174	215.5
2434.289	217.5
2449.349	192.5
2464.356	189.5
2479.311	191.5
2494.213	189.5
2509.062	184.5
2523.859	184.5
2538.605	184.5
2553.299	182.5
2567.941	176.5
2582.533	167.5
2597.073	158.5
2611.564	161.5
2626.004	150.5
2640.394	139.5
2654.734	134.5
2669.025	117.5
2683.266	116.5
2697.458	105.5
2711.602	89.5
2725.697	84.5
2739.744	81.5
2753.743	85.5
2767.695	89.5
2781.598	76.5
2795.455	86.5
2809.264	68.5
2823.026	77.5
2836.742	77.5
2850.412	71.5
2864.035	71.5
2877.613	61.5
2891.145	54.5
2904.631	51.5
2918.073	42.5
2931.469	36.5
2944.821	33.5
2958.128	25.5
2971.39	19.5
2984.609	14.5
2997.784	22.5
3010.915	20.5
3024.002	12.5
3037.046	9.5
3050.048	4.5
3063.006	-8.5
3075.922	-5.5
3088.795	-9.5
3101.627	-7.5
3114.416	-8.5
3127.163	-8.5
3139.869	-15.5
3152.533	-15.5
3165.157	-21.5
3177.739	-20.5
3190.28	-25.5
3202.781	-29.5
3215.241	-37.5
3227.661	-39.5
3240.041	-37.5
3252.382	-34.5
3264.682	-39.5
3276.943	-40.5
3289.165	-38.5
3301.348	-44.5
3313.492	-47.5
3325.597	-50.5
3337.663	-57.5
3349.691	-51.5
3361.681	-50.5
3373.633	-47.5
3385.547	-50.5
3397.424	-44.5
3409.263	-55.5
3421.065	-51.5
3432.829	-56.5
3444.557	-51.5
3456.247	-58.5
3467.902	-58.5
3479.519	-50.5
3491.101	-60.5
3502.646	-62.5
3514.155	-59.5
3525.629	-73.5
3537.067	-66.5
3548.469	-64.5
3559.837	-66.5
3571.169	-67.5
3582.466	-60.5
3593.728	-66.5
3604.956	-69.5
3616.149	-74.5
3627.307	-72.5
3638.432	-67.5
3649.523	-73.5
3660.579	-68.5
3671.602	-72.5
3682.591	-70.5
3693.547	-65.5
3704.47	-74.5
3715.359	-71.5
3726.216	-77.5
3737.039	-75.5
3747.83	-73.5
3758.589	-71.5
3769.315	-70.5
3780.008	-80.5
3790.67	-75.5
3801.299	-74.5
3811.897	-75.5
3822.463	-78.5
3832.998	-73.5
3843.501	-70.5
3853.973	-73.5
3864.414	-75.5
3874.823	-38.5
3885.202	48.5
3895.55	-59.5
3905.868	-71.5
3916.155	-74.5
3926.411	-76.5
3936.638	-77.5
3946.834	-75.5
3957	-74.5
3967.137	-74.5
3977.244	-71.5
3987.321	-72.5
3997.369	-71.5
4007.388	-71.5
4017.377	-69.5
4027.338	-69.5
4037.269	-74.5
4047.172	-75.5
4057.046	-72.5
4066.891	-76.5
4076.708	-78.5
4086.497	-81.5
4096.257	-77.5
4105.989	49.5
4115.694	28.5
4125.37	-80.5
4135.019	-79.5
4142.237	-82.5