File: Data/Raman/2017-08-29 - Alluminum 2/Aug 29 2017 - Aluminum 2/blank 1_RamanShift_2.txt
Data from blank 1_RamanShift_2.txt Node

Date: Tue Aug 29 12:00:37 IDT 2017
User: aro
Spectrometer: QEPB0276
Trigger mode: 0
Integration Time (sec): 3.000000E1
Scans to average: 1
Electric dark correction enabled: true
Nonlinearity correction enabled: false
Boxcar width: 0
XAxis mode: Raman Shifts
Number of Pixels in Spectrum: 1044
>>>>>Begin Spectral Data<<<<<
160.701	35.38
184.826	512.38
208.845	2244.38
232.758	2352.38
256.565	2498.38
280.267	2613.38
303.865	2780.38
327.359	2883.38
350.751	2998.38
374.04	3351.38
397.228	3391.38
420.315	5345.38
443.302	3476.38
466.189	3110.38
488.978	3002.38
511.668	2289.38
534.261	1611.38
556.756	1389.38
579.155	1352.38
601.459	1315.38
623.667	1239.38
645.781	1790.38
667.8	1170.38
689.726	1048.38
711.56	1005.38
733.301	1026.38
754.951	1227.38
776.509	1126.38
797.977	1249.38
819.355	1180.38
840.644	1087.38
861.844	970.38
882.955	885.38
903.979	853.38
924.916	827.38
945.766	817.38
966.529	798.38
987.208	778.38
1007.801	809.38
1028.309	826.38
1048.734	861.38
1069.075	870.38
1089.333	858.38
1109.509	801.38
1129.602	761.38
1149.614	758.38
1169.545	791.38
1189.395	774.38
1209.165	787.38
1228.856	806.38
1248.467	785.38
1268	698.38
1287.455	676.38
1306.832	718.38
1326.132	702.38
1345.354	681.38
1364.501	665.38
1383.572	663.38
1402.567	618.38
1421.487	611.38
1440.333	634.38
1459.104	642.38
1477.802	630.38
1496.426	635.38
1514.978	673.38
1533.457	641.38
1551.864	606.38
1570.199	598.38
1588.464	582.38
1606.657	559.38
1624.78	549.38
1642.834	549.38
1660.817	558.38
1678.732	542.38
1696.577	553.38
1714.355	518.38
1732.064	484.38
1749.705	461.38
1767.28	438.38
1784.787	439.38
1802.228	446.38
1819.603	413.38
1836.913	396.38
1854.156	390.38
1871.335	394.38
1888.449	388.38
1905.499	378.38
1922.485	387.38
1939.408	397.38
1956.267	373.38
1973.063	337.38
1989.797	306.38
2006.469	312.38
2023.078	294.38
2039.627	286.38
2056.114	282.38
2072.54	294.38
2088.906	294.38
2105.211	277.38
2121.457	265.38
2137.643	251.38
2153.77	237.38
2169.838	230.38
2185.848	207.38
2201.799	210.38
2217.693	211.38
2233.529	207.38
2249.307	196.38
2265.029	173.38
2280.694	167.38
2296.302	156.38
2311.854	151.38
2327.351	149.38
2342.792	134.38
2358.178	132.38
2373.508	125.38
2388.785	126.38
2404.007	120.38
2419.174	117.38
2434.289	118.38
2449.349	103.38
2464.356	95.38
2479.311	90.38
2494.213	96.38
2509.062	92.38
2523.859	87.38
2538.605	75.38
2553.299	82.38
2567.941	81.38
2582.533	75.38
2597.073	74.38
2611.564	64.38
2626.004	54.38
2640.394	62.38
2654.734	43.38
2669.025	34.38
2683.266	37.38
2697.458	28.38
2711.602	22.38
2725.697	20.38
2739.744	19.38
2753.743	20.38
2767.695	23.38
2781.598	11.38
2795.455	19.38
2809.264	8.38
2823.026	10.38
2836.742	14.38
2850.412	6.38
2864.035	3.38
2877.613	-2.62
2891.145	-0.62
2904.631	-6.62
2918.073	-19.62
2931.469	-25.62
2944.821	-23.62
2958.128	-25.62
2971.39	-27.62
2984.609	-28.62
2997.784	-26.62
3010.915	-31.62
3024.002	-40.62
3037.046	-39.62
3050.048	-44.62
3063.006	-45.62
3075.922	-43.62
3088.795	-52.62
3101.627	-47.62
3114.416	-48.62
3127.163	-57.62
3139.869	-55.62
3152.533	-56.62
3165.157	-58.62
3177.739	-62.62
3190.28	-60.62
3202.781	-68.62
3215.241	-69.62
3227.661	-72.62
3240.041	-66.62
3252.382	-71.62
3264.682	-69.62
3276.943	-71.62
3289.165	-69.62
3301.348	-75.62
3313.492	-76.62
3325.597	-81.62
3337.663	-80.62
3349.691	-82.62
3361.681	-75.62
3373.633	-80.62
3385.547	-76.62
3397.424	-79.62
3409.263	-81.62
3421.065	-85.62
3432.829	-82.62
3444.557	-85.62
3456.247	-87.62
3467.902	-86.62
3479.519	-78.62
3491.101	-84.62
3502.646	-83.62
3514.155	-83.62
3525.629	-94.62
3537.067	-93.62
3548.469	-90.62
3559.837	-84.62
3571.169	-93.62
3582.466	-89.62
3593.728	-84.62
3604.956	-91.62
3616.149	-89.62
3627.307	-93.62
3638.432	-92.62
3649.523	-98.62
3660.579	-90.62
3671.602	-94.62
3682.591	-93.62
3693.547	-92.62
3704.47	-97.62
3715.359	-97.62
3726.216	-100.62
3737.039	-99.62
3747.83	-98.62
3758.589	-96.62
3769.315	-96.62
3780.008	-99.62
3790.67	-99.62
3801.299	-94.62
3811.897	-94.62
3822.463	-94.62
3832.998	-95.62
3843.501	-95.62
3853.973	-89.62
3864.414	-93.62
3874.823	-47.62
3885.202	97.38
3895.55	-67.62
3905.868	-91.62
3916.155	-95.62
3926.411	-90.62
3936.638	-101.62
3946.834	-97.62
3957	-92.62
3967.137	-93.62
3977.244	-95.62
3987.321	-97.62
3997.369	-95.62
4007.388	-93.62
4017.377	-92.62
4027.338	-89.62
4037.269	-93.62
4047.172	-88.62
4057.046	-97.62
4066.891	-98.62
4076.708	-91.62
4086.497	-95.62
4096.257	-95.62
4105.989	59.38
4115.694	34.38
4125.37	-97.62
4135.019	-99.62
4142.237	-105.62