File: Data/Raman/2017-08-29 - Alluminum 2/Aug 29 2017 - Aluminum 2/blank 2_RamanShift_2.txt
Data from blank 2_RamanShift_2.txt Node

Date: Tue Aug 29 12:24:07 IDT 2017
User: aro
Spectrometer: QEPB0276
Trigger mode: 0
Integration Time (sec): 3.000000E1
Scans to average: 1
Electric dark correction enabled: true
Nonlinearity correction enabled: false
Boxcar width: 0
XAxis mode: Raman Shifts
Number of Pixels in Spectrum: 1044
>>>>>Begin Spectral Data<<<<<
160.701	36.75
184.826	483.75
208.845	2123.75
232.758	2272.75
256.565	2439.75
280.267	2617.75
303.865	2833.75
327.359	2981.75
350.751	3163.75
374.04	3510.75
397.228	3606.75
420.315	5949.75
443.302	3700.75
466.189	3314.75
488.978	3163.75
511.668	2282.75
534.261	1518.75
556.756	1288.75
579.155	1245.75
601.459	1220.75
623.667	1134.75
645.781	1779.75
667.8	1048.75
689.726	918.75
711.56	877.75
733.301	905.75
754.951	1141.75
776.509	1027.75
797.977	1157.75
819.355	1102.75
840.644	987.75
861.844	831.75
882.955	731.75
903.979	708.75
924.916	695.75
945.766	676.75
966.529	665.75
987.208	642.75
1007.801	668.75
1028.309	694.75
1048.734	751.75
1069.075	744.75
1089.333	722.75
1109.509	670.75
1129.602	605.75
1149.614	620.75
1169.545	655.75
1189.395	648.75
1209.165	660.75
1228.856	657.75
1248.467	630.75
1268	562.75
1287.455	531.75
1306.832	560.75
1326.132	556.75
1345.354	537.75
1364.501	519.75
1383.572	493.75
1402.567	481.75
1421.487	476.75
1440.333	480.75
1459.104	490.75
1477.802	481.75
1496.426	491.75
1514.978	534.75
1533.457	502.75
1551.864	476.75
1570.199	447.75
1588.464	439.75
1606.657	424.75
1624.78	412.75
1642.834	423.75
1660.817	435.75
1678.732	428.75
1696.577	428.75
1714.355	405.75
1732.064	381.75
1749.705	346.75
1767.28	326.75
1784.787	335.75
1802.228	329.75
1819.603	308.75
1836.913	295.75
1854.156	285.75
1871.335	291.75
1888.449	295.75
1905.499	294.75
1922.485	302.75
1939.408	301.75
1956.267	293.75
1973.063	263.75
1989.797	226.75
2006.469	234.75
2023.078	228.75
2039.627	207.75
2056.114	206.75
2072.54	216.75
2088.906	219.75
2105.211	213.75
2121.457	199.75
2137.643	183.75
2153.77	181.75
2169.838	169.75
2185.848	155.75
2201.799	154.75
2217.693	148.75
2233.529	149.75
2249.307	134.75
2265.029	131.75
2280.694	117.75
2296.302	157.75
2311.854	99.75
2327.351	112.75
2342.792	98.75
2358.178	91.75
2373.508	98.75
2388.785	89.75
2404.007	87.75
2419.174	81.75
2434.289	80.75
2449.349	69.75
2464.356	63.75
2479.311	63.75
2494.213	54.75
2509.062	51.75
2523.859	50.75
2538.605	47.75
2553.299	57.75
2567.941	54.75
2582.533	51.75
2597.073	44.75
2611.564	44.75
2626.004	35.75
2640.394	27.75
2654.734	31.75
2669.025	24.75
2683.266	21.75
2697.458	11.75
2711.602	6.75
2725.697	5.75
2739.744	9.75
2753.743	7.75
2767.695	7.75
2781.598	4.75
2795.455	-2.25
2809.264	-14.25
2823.026	-4.25
2836.742	3.75
2850.412	-13.25
2864.035	-8.25
2877.613	-22.25
2891.145	-23.25
2904.631	-26.25
2918.073	-28.25
2931.469	-30.25
2944.821	-33.25
2958.128	-33.25
2971.39	-37.25
2984.609	-42.25
2997.784	-31.25
3010.915	-41.25
3024.002	-45.25
3037.046	-44.25
3050.048	-48.25
3063.006	-53.25
3075.922	-52.25
3088.795	-55.25
3101.627	-53.25
3114.416	-46.25
3127.163	-54.25
3139.869	-53.25
3152.533	-60.25
3165.157	-59.25
3177.739	-60.25
3190.28	-66.25
3202.781	-71.25
3215.241	-72.25
3227.661	-71.25
3240.041	-71.25
3252.382	-68.25
3264.682	-71.25
3276.943	-70.25
3289.165	-66.25
3301.348	-73.25
3313.492	-73.25
3325.597	-76.25
3337.663	-82.25
3349.691	-75.25
3361.681	-78.25
3373.633	-80.25
3385.547	-78.25
3397.424	-77.25
3409.263	-78.25
3421.065	-80.25
3432.829	-78.25
3444.557	-76.25
3456.247	-84.25
3467.902	-86.25
3479.519	-78.25
3491.101	-86.25
3502.646	-80.25
3514.155	-83.25
3525.629	-86.25
3537.067	-87.25
3548.469	-88.25
3559.837	-87.25
3571.169	-89.25
3582.466	-83.25
3593.728	-83.25
3604.956	-82.25
3616.149	-92.25
3627.307	-93.25
3638.432	-90.25
3649.523	-88.25
3660.579	-90.25
3671.602	-87.25
3682.591	-86.25
3693.547	-85.25
3704.47	-95.25
3715.359	-90.25
3726.216	-93.25
3737.039	-93.25
3747.83	-95.25
3758.589	-90.25
3769.315	-95.25
3780.008	-97.25
3790.67	-93.25
3801.299	-92.25
3811.897	-91.25
3822.463	-88.25
3832.998	-88.25
3843.501	-91.25
3853.973	-85.25
3864.414	-88.25
3874.823	-45.25
3885.202	102.75
3895.55	-66.25
3905.868	-89.25
3916.155	-90.25
3926.411	-91.25
3936.638	-95.25
3946.834	-93.25
3957	-87.25
3967.137	-94.25
3977.244	-93.25
3987.321	-91.25
3997.369	-93.25
4007.388	-91.25
4017.377	-91.25
4027.338	-85.25
4037.269	-88.25
4047.172	-90.25
4057.046	-91.25
4066.891	-94.25
4076.708	-88.25
4086.497	-90.25
4096.257	-93.25
4105.989	61.75
4115.694	42.75
4125.37	-91.25
4135.019	-94.25
4142.237	-96.25