File: Data/Raman/2017-08-29 - Alluminum 2/Aug 29 2017 - Aluminum 2/EC 110 5_RamanShift_3.txt
Data from EC 110 5_RamanShift_3.txt Node

Date: Tue Aug 29 12:52:37 IDT 2017
User: aro
Spectrometer: QEPB0276
Trigger mode: 0
Integration Time (sec): 3.000000E1
Scans to average: 1
Electric dark correction enabled: true
Nonlinearity correction enabled: false
Boxcar width: 0
XAxis mode: Raman Shifts
Number of Pixels in Spectrum: 1044
>>>>>Begin Spectral Data<<<<<
160.701	23.25
184.826	408.25
208.845	1804.25
232.758	1938.25
256.565	2109.25
280.267	2252.25
303.865	2411.25
327.359	2490.25
350.751	2572.25
374.04	2807.25
397.228	2830.25
420.315	4167.25
443.302	2886.25
466.189	2677.25
488.978	2597.25
511.668	2035.25
534.261	1520.25
556.756	1380.25
579.155	1364.25
601.459	1332.25
623.667	1280.25
645.781	1617.25
667.8	1205.25
689.726	1134.25
711.56	1112.25
733.301	1137.25
754.951	1264.25
776.509	1207.25
797.977	1303.25
819.355	1250.25
840.644	1199.25
861.844	1112.25
882.955	1049.25
903.979	1022.25
924.916	997.25
945.766	1003.25
966.529	993.25
987.208	950.25
1007.801	978.25
1028.309	1016.25
1048.734	1029.25
1069.075	1023.25
1089.333	1019.25
1109.509	987.25
1129.602	935.25
1149.614	939.25
1169.545	982.25
1189.395	951.25
1209.165	943.25
1228.856	990.25
1248.467	952.25
1268	879.25
1287.455	849.25
1306.832	874.25
1326.132	869.25
1345.354	812.25
1364.501	811.25
1383.572	837.25
1402.567	807.25
1421.487	758.25
1440.333	784.25
1459.104	773.25
1477.802	750.25
1496.426	753.25
1514.978	809.25
1533.457	800.25
1551.864	777.25
1570.199	739.25
1588.464	727.25
1606.657	691.25
1624.78	660.25
1642.834	675.25
1660.817	684.25
1678.732	666.25
1696.577	651.25
1714.355	684.25
1732.064	652.25
1749.705	597.25
1767.28	562.25
1784.787	541.25
1802.228	591.25
1819.603	560.25
1836.913	534.25
1854.156	524.25
1871.335	525.25
1888.449	515.25
1905.499	508.25
1922.485	546.25
1939.408	557.25
1956.267	547.25
1973.063	505.25
1989.797	462.25
2006.469	456.25
2023.078	436.25
2039.627	409.25
2056.114	404.25
2072.54	416.25
2088.906	435.25
2105.211	439.25
2121.457	419.25
2137.643	403.25
2153.77	384.25
2169.838	363.25
2185.848	346.25
2201.799	339.25
2217.693	340.25
2233.529	350.25
2249.307	324.25
2265.029	317.25
2280.694	304.25
2296.302	301.25
2311.854	284.25
2327.351	294.25
2342.792	265.25
2358.178	268.25
2373.508	273.25
2388.785	262.25
2404.007	266.25
2419.174	252.25
2434.289	247.25
2449.349	232.25
2464.356	223.25
2479.311	223.25
2494.213	219.25
2509.062	218.25
2523.859	210.25
2538.605	211.25
2553.299	211.25
2567.941	215.25
2582.533	204.25
2597.073	193.25
2611.564	190.25
2626.004	182.25
2640.394	178.25
2654.734	165.25
2669.025	150.25
2683.266	151.25
2697.458	126.25
2711.602	112.25
2725.697	101.25
2739.744	109.25
2753.743	111.25
2767.695	120.25
2781.598	103.25
2795.455	102.25
2809.264	98.25
2823.026	101.25
2836.742	96.25
2850.412	93.25
2864.035	90.25
2877.613	84.25
2891.145	77.25
2904.631	62.25
2918.073	58.25
2931.469	55.25
2944.821	50.25
2958.128	36.25
2971.39	37.25
2984.609	32.25
2997.784	39.25
3010.915	33.25
3024.002	27.25
3037.046	27.25
3050.048	18.25
3063.006	8.25
3075.922	9.25
3088.795	2.25
3101.627	0.25
3114.416	6.25
3127.163	2.25
3139.869	1.25
3152.533	-5.75
3165.157	-9.75
3177.739	-10.75
3190.28	-18.75
3202.781	-20.75
3215.241	-26.75
3227.661	-33.75
3240.041	-31.75
3252.382	-27.75
3264.682	-28.75
3276.943	-31.75
3289.165	-35.75
3301.348	-35.75
3313.492	-41.75
3325.597	-43.75
3337.663	-51.75
3349.691	-43.75
3361.681	-48.75
3373.633	-44.75
3385.547	-41.75
3397.424	-46.75
3409.263	-54.75
3421.065	-53.75
3432.829	-50.75
3444.557	-48.75
3456.247	-58.75
3467.902	-60.75
3479.519	-52.75
3491.101	-55.75
3502.646	-56.75
3514.155	-59.75
3525.629	-62.75
3537.067	-63.75
3548.469	-62.75
3559.837	-61.75
3571.169	-61.75
3582.466	-65.75
3593.728	-59.75
3604.956	-64.75
3616.149	-69.75
3627.307	-73.75
3638.432	-68.75
3649.523	-63.75
3660.579	-68.75
3671.602	-64.75
3682.591	-67.75
3693.547	-71.75
3704.47	-72.75
3715.359	-66.75
3726.216	-71.75
3737.039	-72.75
3747.83	-68.75
3758.589	-70.75
3769.315	-72.75
3780.008	-84.75
3790.67	-73.75
3801.299	-73.75
3811.897	-70.75
3822.463	-74.75
3832.998	-67.75
3843.501	-69.75
3853.973	-71.75
3864.414	-75.75
3874.823	-42.75
3885.202	44.25
3895.55	-60.75
3905.868	-77.75
3916.155	-77.75
3926.411	-73.75
3936.638	-78.75
3946.834	-71.75
3957	-75.75
3967.137	-74.75
3977.244	-75.75
3987.321	-73.75
3997.369	-70.75
4007.388	-72.75
4017.377	-71.75
4027.338	-67.75
4037.269	-75.75
4047.172	-76.75
4057.046	-75.75
4066.891	-74.75
4076.708	-71.75
4086.497	-79.75
4096.257	-72.75
4105.989	40.25
4115.694	27.25
4125.37	-78.75
4135.019	-78.75
4142.237	-80.75