File: Data/Raman/2017-08-29 - Alluminum 2/Aug 29 2017 - Aluminum 2/EC 12 2_RamanShift_1.txt
Data from EC 12 2_RamanShift_1.txt Node

Date: Tue Aug 29 12:15:07 IDT 2017
User: aro
Spectrometer: QEPB0276
Trigger mode: 0
Integration Time (sec): 3.000000E1
Scans to average: 1
Electric dark correction enabled: true
Nonlinearity correction enabled: false
Boxcar width: 0
XAxis mode: Raman Shifts
Number of Pixels in Spectrum: 1044
>>>>>Begin Spectral Data<<<<<
160.701	40.88
184.826	499.88
208.845	2249.88
232.758	2430.88
256.565	2629.88
280.267	2798.88
303.865	2988.88
327.359	3103.88
350.751	3192.88
374.04	3429.88
397.228	3462.88
420.315	5023.88
443.302	3560.88
466.189	3267.88
488.978	3166.88
511.668	2516.88
534.261	1965.88
556.756	1771.88
579.155	1738.88
601.459	1714.88
623.667	1635.88
645.781	2031.88
667.8	1541.88
689.726	1442.88
711.56	1405.88
733.301	1405.88
754.951	1568.88
776.509	1501.88
797.977	1579.88
819.355	1520.88
840.644	1434.88
861.844	1340.88
882.955	1256.88
903.979	1233.88
924.916	1210.88
945.766	1189.88
966.529	1173.88
987.208	1129.88
1007.801	1138.88
1028.309	1206.88
1048.734	1202.88
1069.075	1173.88
1089.333	1171.88
1109.509	1145.88
1129.602	1066.88
1149.614	1054.88
1169.545	1075.88
1189.395	1059.88
1209.165	1060.88
1228.856	1077.88
1248.467	1030.88
1268	977.88
1287.455	939.88
1306.832	959.88
1326.132	937.88
1345.354	871.88
1364.501	860.88
1383.572	842.88
1402.567	807.88
1421.487	793.88
1440.333	820.88
1459.104	814.88
1477.802	772.88
1496.426	764.88
1514.978	793.88
1533.457	792.88
1551.864	756.88
1570.199	730.88
1588.464	717.88
1606.657	684.88
1624.78	659.88
1642.834	662.88
1660.817	667.88
1678.732	647.88
1696.577	634.88
1714.355	638.88
1732.064	594.88
1749.705	554.88
1767.28	521.88
1784.787	495.88
1802.228	533.88
1819.603	503.88
1836.913	481.88
1854.156	478.88
1871.335	476.88
1888.449	473.88
1905.499	449.88
1922.485	478.88
1939.408	479.88
1956.267	468.88
1973.063	421.88
1989.797	384.88
2006.469	378.88
2023.078	375.88
2039.627	349.88
2056.114	344.88
2072.54	353.88
2088.906	372.88
2105.211	352.88
2121.457	328.88
2137.643	323.88
2153.77	309.88
2169.838	295.88
2185.848	280.88
2201.799	271.88
2217.693	264.88
2233.529	274.88
2249.307	252.88
2265.029	248.88
2280.694	229.88
2296.302	220.88
2311.854	213.88
2327.351	217.88
2342.792	199.88
2358.178	197.88
2373.508	200.88
2388.785	193.88
2404.007	181.88
2419.174	189.88
2434.289	173.88
2449.349	161.88
2464.356	153.88
2479.311	144.88
2494.213	145.88
2509.062	147.88
2523.859	145.88
2538.605	139.88
2553.299	143.88
2567.941	136.88
2582.533	138.88
2597.073	131.88
2611.564	109.88
2626.004	108.88
2640.394	102.88
2654.734	100.88
2669.025	87.88
2683.266	87.88
2697.458	65.88
2711.602	59.88
2725.697	53.88
2739.744	55.88
2753.743	58.88
2767.695	60.88
2781.598	46.88
2795.455	45.88
2809.264	43.88
2823.026	51.88
2836.742	49.88
2850.412	36.88
2864.035	35.88
2877.613	30.88
2891.145	22.88
2904.631	18.88
2918.073	6.88
2931.469	8.88
2944.821	0.88
2958.128	-4.12
2971.39	-10.12
2984.609	-6.12
2997.784	-3.12
3010.915	-12.12
3024.002	-19.12
3037.046	-18.12
3050.048	-29.12
3063.006	-32.12
3075.922	-31.12
3088.795	-36.12
3101.627	-23.12
3114.416	-34.12
3127.163	-38.12
3139.869	-38.12
3152.533	-41.12
3165.157	-47.12
3177.739	-45.12
3190.28	-47.12
3202.781	-55.12
3215.241	-56.12
3227.661	-57.12
3240.041	-60.12
3252.382	-62.12
3264.682	-57.12
3276.943	-64.12
3289.165	-63.12
3301.348	-70.12
3313.492	-57.12
3325.597	-74.12
3337.663	-77.12
3349.691	-68.12
3361.681	-70.12
3373.633	-71.12
3385.547	-71.12
3397.424	-71.12
3409.263	-73.12
3421.065	-74.12
3432.829	-75.12
3444.557	-70.12
3456.247	-73.12
3467.902	-88.12
3479.519	-80.12
3491.101	-84.12
3502.646	-79.12
3514.155	-84.12
3525.629	-88.12
3537.067	-82.12
3548.469	-85.12
3559.837	-79.12
3571.169	-84.12
3582.466	-84.12
3593.728	-83.12
3604.956	-86.12
3616.149	-91.12
3627.307	-87.12
3638.432	-86.12
3649.523	-87.12
3660.579	-94.12
3671.602	-90.12
3682.591	-92.12
3693.547	-86.12
3704.47	-90.12
3715.359	-93.12
3726.216	-95.12
3737.039	-95.12
3747.83	-87.12
3758.589	-88.12
3769.315	-90.12
3780.008	-99.12
3790.67	-89.12
3801.299	-96.12
3811.897	-88.12
3822.463	-91.12
3832.998	-84.12
3843.501	-90.12
3853.973	-90.12
3864.414	-87.12
3874.823	-49.12
3885.202	64.88
3895.55	-68.12
3905.868	-92.12
3916.155	-91.12
3926.411	-92.12
3936.638	-94.12
3946.834	-91.12
3957	-88.12
3967.137	-91.12
3977.244	-91.12
3987.321	-95.12
3997.369	-95.12
4007.388	-85.12
4017.377	-83.12
4027.338	-90.12
4037.269	-91.12
4047.172	-86.12
4057.046	-93.12
4066.891	-100.12
4076.708	-95.12
4086.497	-97.12
4096.257	-94.12
4105.989	42.88
4115.694	29.88
4125.37	-90.12
4135.019	-92.12
4142.237	-97.12