File: Data/Raman/2017-08-29 - Alluminum 2/Aug 29 2017 - Aluminum 2/EC 12 2_RamanShift_3.txt
Data from EC 12 2_RamanShift_3.txt Node

Date: Tue Aug 29 12:16:07 IDT 2017
User: aro
Spectrometer: QEPB0276
Trigger mode: 0
Integration Time (sec): 3.000000E1
Scans to average: 1
Electric dark correction enabled: true
Nonlinearity correction enabled: false
Boxcar width: 0
XAxis mode: Raman Shifts
Number of Pixels in Spectrum: 1044
>>>>>Begin Spectral Data<<<<<
160.701	38.25
184.826	481.25
208.845	2130.25
232.758	2305.25
256.565	2479.25
280.267	2646.25
303.865	2810.25
327.359	2913.25
350.751	3024.25
374.04	3284.25
397.228	3323.25
420.315	4866.25
443.302	3406.25
466.189	3136.25
488.978	3011.25
511.668	2379.25
534.261	1815.25
556.756	1628.25
579.155	1601.25
601.459	1580.25
623.667	1489.25
645.781	1858.25
667.8	1405.25
689.726	1306.25
711.56	1265.25
733.301	1284.25
754.951	1425.25
776.509	1371.25
797.977	1450.25
819.355	1394.25
840.644	1332.25
861.844	1207.25
882.955	1148.25
903.979	1100.25
924.916	1091.25
945.766	1090.25
966.529	1051.25
987.208	1018.25
1007.801	1048.25
1028.309	1078.25
1048.734	1098.25
1069.075	1094.25
1089.333	1068.25
1109.509	1044.25
1129.602	969.25
1149.614	968.25
1169.545	1001.25
1189.395	981.25
1209.165	978.25
1228.856	1009.25
1248.467	955.25
1268	892.25
1287.455	859.25
1306.832	884.25
1326.132	858.25
1345.354	802.25
1364.501	796.25
1383.572	805.25
1402.567	762.25
1421.487	735.25
1440.333	749.25
1459.104	753.25
1477.802	715.25
1496.426	713.25
1514.978	769.25
1533.457	736.25
1551.864	701.25
1570.199	676.25
1588.464	676.25
1606.657	636.25
1624.78	615.25
1642.834	622.25
1660.817	639.25
1678.732	615.25
1696.577	597.25
1714.355	604.25
1732.064	578.25
1749.705	526.25
1767.28	483.25
1784.787	485.25
1802.228	497.25
1819.603	475.25
1836.913	467.25
1854.156	439.25
1871.335	454.25
1888.449	449.25
1905.499	432.25
1922.485	442.25
1939.408	462.25
1956.267	451.25
1973.063	393.25
1989.797	366.25
2006.469	369.25
2023.078	354.25
2039.627	341.25
2056.114	332.25
2072.54	341.25
2088.906	354.25
2105.211	337.25
2121.457	332.25
2137.643	312.25
2153.77	303.25
2169.838	284.25
2185.848	265.25
2201.799	263.25
2217.693	257.25
2233.529	254.25
2249.307	252.25
2265.029	239.25
2280.694	220.25
2296.302	206.25
2311.854	208.25
2327.351	205.25
2342.792	197.25
2358.178	186.25
2373.508	195.25
2388.785	184.25
2404.007	176.25
2419.174	179.25
2434.289	174.25
2449.349	163.25
2464.356	149.25
2479.311	149.25
2494.213	136.25
2509.062	144.25
2523.859	139.25
2538.605	140.25
2553.299	139.25
2567.941	137.25
2582.533	137.25
2597.073	122.25
2611.564	118.25
2626.004	104.25
2640.394	104.25
2654.734	99.25
2669.025	82.25
2683.266	86.25
2697.458	70.25
2711.602	61.25
2725.697	53.25
2739.744	58.25
2753.743	62.25
2767.695	64.25
2781.598	52.25
2795.455	49.25
2809.264	47.25
2823.026	46.25
2836.742	51.25
2850.412	41.25
2864.035	38.25
2877.613	36.25
2891.145	27.25
2904.631	18.25
2918.073	10.25
2931.469	9.25
2944.821	6.25
2958.128	-3.75
2971.39	-3.75
2984.609	-4.75
2997.784	4.25
3010.915	-4.75
3024.002	-17.75
3037.046	-11.75
3050.048	-21.75
3063.006	-25.75
3075.922	-24.75
3088.795	-27.75
3101.627	-24.75
3114.416	-26.75
3127.163	-30.75
3139.869	-29.75
3152.533	-30.75
3165.157	-42.75
3177.739	-37.75
3190.28	-42.75
3202.781	-48.75
3215.241	-50.75
3227.661	-49.75
3240.041	-48.75
3252.382	-49.75
3264.682	-51.75
3276.943	-55.75
3289.165	-57.75
3301.348	-59.75
3313.492	-64.75
3325.597	-71.75
3337.663	-71.75
3349.691	-67.75
3361.681	-64.75
3373.633	-59.75
3385.547	-68.75
3397.424	-61.75
3409.263	-70.75
3421.065	-63.75
3432.829	-64.75
3444.557	-69.75
3456.247	-74.75
3467.902	-73.75
3479.519	-67.75
3491.101	-70.75
3502.646	-76.75
3514.155	-72.75
3525.629	-82.75
3537.067	-78.75
3548.469	-79.75
3559.837	-78.75
3571.169	-79.75
3582.466	-81.75
3593.728	-74.75
3604.956	-79.75
3616.149	-82.75
3627.307	-81.75
3638.432	-75.75
3649.523	-82.75
3660.579	-76.75
3671.602	-80.75
3682.591	-78.75
3693.547	-77.75
3704.47	-87.75
3715.359	-83.75
3726.216	-81.75
3737.039	-85.75
3747.83	-81.75
3758.589	-84.75
3769.315	-87.75
3780.008	-95.75
3790.67	-88.75
3801.299	-85.75
3811.897	-89.75
3822.463	-85.75
3832.998	-80.75
3843.501	-84.75
3853.973	-79.75
3864.414	-76.75
3874.823	-43.75
3885.202	76.25
3895.55	-65.75
3905.868	-87.75
3916.155	-82.75
3926.411	-85.75
3936.638	-90.75
3946.834	-81.75
3957	-88.75
3967.137	-84.75
3977.244	-86.75
3987.321	-82.75
3997.369	-85.75
4007.388	-75.75
4017.377	-77.75
4027.338	-80.75
4037.269	-83.75
4047.172	-85.75
4057.046	-82.75
4066.891	-87.75
4076.708	-87.75
4086.497	-89.75
4096.257	-89.75
4105.989	50.25
4115.694	28.25
4125.37	-90.75
4135.019	-91.75
4142.237	-93.75