File: Data/Raman/2017-08-29 - Alluminum 2/Aug 29 2017 - Aluminum 2/EC 12 1_RamanShift_2.txt
Data from EC 12 1_RamanShift_2.txt Node

Date: Tue Aug 29 12:13:07 IDT 2017
User: aro
Spectrometer: QEPB0276
Trigger mode: 0
Integration Time (sec): 3.000000E1
Scans to average: 1
Electric dark correction enabled: true
Nonlinearity correction enabled: false
Boxcar width: 0
XAxis mode: Raman Shifts
Number of Pixels in Spectrum: 1044
>>>>>Begin Spectral Data<<<<<
160.701	30.5
184.826	613.5
208.845	2777.5
232.758	2979.5
256.565	3173.5
280.267	3339.5
303.865	3487.5
327.359	3581.5
350.751	3700.5
374.04	3908.5
397.228	3962.5
420.315	5347.5
443.302	3989.5
466.189	3760.5
488.978	3642.5
511.668	3037.5
534.261	2517.5
556.756	2371.5
579.155	2344.5
601.459	2292.5
623.667	2191.5
645.781	2560.5
667.8	2141.5
689.726	2042.5
711.56	1966.5
733.301	1974.5
754.951	2088.5
776.509	2044.5
797.977	2114.5
819.355	2045.5
840.644	1951.5
861.844	1871.5
882.955	1772.5
903.979	1712.5
924.916	1728.5
945.766	1718.5
966.529	1681.5
987.208	1604.5
1007.801	1653.5
1028.309	1697.5
1048.734	1685.5
1069.075	1654.5
1089.333	1638.5
1109.509	1609.5
1129.602	1500.5
1149.614	1505.5
1169.545	1518.5
1189.395	1503.5
1209.165	1492.5
1228.856	1503.5
1248.467	1481.5
1268	1374.5
1287.455	1338.5
1306.832	1368.5
1326.132	1336.5
1345.354	1236.5
1364.501	1230.5
1383.572	1223.5
1402.567	1185.5
1421.487	1152.5
1440.333	1171.5
1459.104	1153.5
1477.802	1085.5
1496.426	1093.5
1514.978	1136.5
1533.457	1129.5
1551.864	1072.5
1570.199	1022.5
1588.464	1030.5
1606.657	970.5
1624.78	937.5
1642.834	937.5
1660.817	956.5
1678.732	919.5
1696.577	887.5
1714.355	906.5
1732.064	855.5
1749.705	801.5
1767.28	738.5
1784.787	714.5
1802.228	746.5
1819.603	720.5
1836.913	687.5
1854.156	669.5
1871.335	685.5
1888.449	676.5
1905.499	650.5
1922.485	667.5
1939.408	681.5
1956.267	655.5
1973.063	611.5
1989.797	562.5
2006.469	556.5
2023.078	528.5
2039.627	505.5
2056.114	493.5
2072.54	516.5
2088.906	514.5
2105.211	501.5
2121.457	478.5
2137.643	462.5
2153.77	451.5
2169.838	423.5
2185.848	405.5
2201.799	394.5
2217.693	389.5
2233.529	385.5
2249.307	357.5
2265.029	337.5
2280.694	334.5
2296.302	321.5
2311.854	313.5
2327.351	314.5
2342.792	287.5
2358.178	283.5
2373.508	287.5
2388.785	286.5
2404.007	283.5
2419.174	271.5
2434.289	268.5
2449.349	253.5
2464.356	232.5
2479.311	228.5
2494.213	226.5
2509.062	226.5
2523.859	219.5
2538.605	213.5
2553.299	219.5
2567.941	209.5
2582.533	199.5
2597.073	195.5
2611.564	184.5
2626.004	165.5
2640.394	161.5
2654.734	145.5
2669.025	134.5
2683.266	130.5
2697.458	119.5
2711.602	101.5
2725.697	87.5
2739.744	93.5
2753.743	84.5
2767.695	97.5
2781.598	79.5
2795.455	80.5
2809.264	81.5
2823.026	79.5
2836.742	82.5
2850.412	72.5
2864.035	67.5
2877.613	58.5
2891.145	51.5
2904.631	40.5
2918.073	32.5
2931.469	27.5
2944.821	21.5
2958.128	12.5
2971.39	8.5
2984.609	3.5
2997.784	12.5
3010.915	3.5
3024.002	-4.5
3037.046	-9.5
3050.048	-14.5
3063.006	-25.5
3075.922	-15.5
3088.795	-20.5
3101.627	-21.5
3114.416	-21.5
3127.163	-25.5
3139.869	-33.5
3152.533	-35.5
3165.157	-43.5
3177.739	-43.5
3190.28	-51.5
3202.781	-51.5
3215.241	-56.5
3227.661	-60.5
3240.041	-56.5
3252.382	-63.5
3264.682	-61.5
3276.943	-61.5
3289.165	-65.5
3301.348	-65.5
3313.492	-68.5
3325.597	-76.5
3337.663	-74.5
3349.691	-77.5
3361.681	-73.5
3373.633	-72.5
3385.547	-81.5
3397.424	-78.5
3409.263	-79.5
3421.065	-78.5
3432.829	-78.5
3444.557	-80.5
3456.247	-82.5
3467.902	-89.5
3479.519	-84.5
3491.101	-83.5
3502.646	-84.5
3514.155	-82.5
3525.629	-93.5
3537.067	-91.5
3548.469	-93.5
3559.837	-86.5
3571.169	-96.5
3582.466	-89.5
3593.728	-87.5
3604.956	-95.5
3616.149	-100.5
3627.307	-99.5
3638.432	-90.5
3649.523	-98.5
3660.579	-97.5
3671.602	-95.5
3682.591	-96.5
3693.547	-99.5
3704.47	-101.5
3715.359	-102.5
3726.216	-107.5
3737.039	-99.5
3747.83	-100.5
3758.589	-100.5
3769.315	-101.5
3780.008	-110.5
3790.67	-99.5
3801.299	-102.5
3811.897	-102.5
3822.463	-99.5
3832.998	-100.5
3843.501	-100.5
3853.973	-97.5
3864.414	-98.5
3874.823	-62.5
3885.202	70.5
3895.55	-84.5
3905.868	-92.5
3916.155	-97.5
3926.411	-98.5
3936.638	-105.5
3946.834	-95.5
3957	-95.5
3967.137	-99.5
3977.244	-99.5
3987.321	-100.5
3997.369	-99.5
4007.388	-93.5
4017.377	-97.5
4027.338	-95.5
4037.269	-101.5
4047.172	-101.5
4057.046	-102.5
4066.891	-103.5
4076.708	-101.5
4086.497	-101.5
4096.257	-102.5
4105.989	32.5
4115.694	20.5
4125.37	-98.5
4135.019	-102.5
4142.237	-107.5