File: Data/Raman/2017-08-29 - Alluminum 2/Aug 29 2017 - Aluminum 2/EC 110 4_RamanShift_1.txt
Data from EC 110 4_RamanShift_1.txt Node

Date: Tue Aug 29 12:35:07 IDT 2017
User: aro
Spectrometer: QEPB0276
Trigger mode: 0
Integration Time (sec): 3.000000E1
Scans to average: 1
Electric dark correction enabled: true
Nonlinearity correction enabled: false
Boxcar width: 0
XAxis mode: Raman Shifts
Number of Pixels in Spectrum: 1044
>>>>>Begin Spectral Data<<<<<
160.701	32.12
184.826	415.12
208.845	1792.12
232.758	1872.12
256.565	1955.12
280.267	2065.12
303.865	2151.12
327.359	2252.12
350.751	2355.12
374.04	2587.12
397.228	2603.12
420.315	4051.12
443.302	2686.12
466.189	2456.12
488.978	2333.12
511.668	1782.12
534.261	1294.12
556.756	1133.12
579.155	1108.12
601.459	1093.12
623.667	1024.12
645.781	1402.12
667.8	982.12
689.726	873.12
711.56	845.12
733.301	856.12
754.951	1016.12
776.509	937.12
797.977	1030.12
819.355	967.12
840.644	909.12
861.844	807.12
882.955	744.12
903.979	724.12
924.916	700.12
945.766	690.12
966.529	702.12
987.208	659.12
1007.801	687.12
1028.309	717.12
1048.734	734.12
1069.075	725.12
1089.333	705.12
1109.509	683.12
1129.602	636.12
1149.614	651.12
1169.545	652.12
1189.395	645.12
1209.165	647.12
1228.856	679.12
1248.467	646.12
1268	588.12
1287.455	563.12
1306.832	587.12
1326.132	578.12
1345.354	542.12
1364.501	545.12
1383.572	542.12
1402.567	509.12
1421.487	492.12
1440.333	505.12
1459.104	502.12
1477.802	488.12
1496.426	505.12
1514.978	547.12
1533.457	512.12
1551.864	483.12
1570.199	460.12
1588.464	455.12
1606.657	446.12
1624.78	423.12
1642.834	448.12
1660.817	448.12
1678.732	437.12
1696.577	446.12
1714.355	429.12
1732.064	406.12
1749.705	364.12
1767.28	351.12
1784.787	344.12
1802.228	351.12
1819.603	332.12
1836.913	311.12
1854.156	309.12
1871.335	320.12
1888.449	324.12
1905.499	305.12
1922.485	320.12
1939.408	330.12
1956.267	311.12
1973.063	290.12
1989.797	262.12
2006.469	252.12
2023.078	242.12
2039.627	238.12
2056.114	238.12
2072.54	246.12
2088.906	243.12
2105.211	238.12
2121.457	229.12
2137.643	210.12
2153.77	201.12
2169.838	190.12
2185.848	189.12
2201.799	176.12
2217.693	173.12
2233.529	170.12
2249.307	167.12
2265.029	149.12
2280.694	141.12
2296.302	143.12
2311.854	136.12
2327.351	138.12
2342.792	132.12
2358.178	117.12
2373.508	123.12
2388.785	118.12
2404.007	115.12
2419.174	114.12
2434.289	119.12
2449.349	96.12
2464.356	95.12
2479.311	93.12
2494.213	85.12
2509.062	88.12
2523.859	86.12
2538.605	88.12
2553.299	84.12
2567.941	83.12
2582.533	78.12
2597.073	72.12
2611.564	69.12
2626.004	61.12
2640.394	63.12
2654.734	52.12
2669.025	46.12
2683.266	54.12
2697.458	39.12
2711.602	25.12
2725.697	29.12
2739.744	33.12
2753.743	33.12
2767.695	37.12
2781.598	28.12
2795.455	23.12
2809.264	22.12
2823.026	24.12
2836.742	27.12
2850.412	14.12
2864.035	17.12
2877.613	8.12
2891.145	0.12
2904.631	-1.88
2918.073	-2.88
2931.469	-5.88
2944.821	-11.88
2958.128	-11.88
2971.39	-13.88
2984.609	-18.88
2997.784	-11.88
3010.915	-22.88
3024.002	-18.88
3037.046	-24.88
3050.048	-28.88
3063.006	-36.88
3075.922	-29.88
3088.795	-30.88
3101.627	-27.88
3114.416	-29.88
3127.163	-34.88
3139.869	-27.88
3152.533	-38.88
3165.157	-39.88
3177.739	-34.88
3190.28	-40.88
3202.781	-44.88
3215.241	-51.88
3227.661	-50.88
3240.041	-47.88
3252.382	-48.88
3264.682	-48.88
3276.943	-57.88
3289.165	-53.88
3301.348	-50.88
3313.492	-54.88
3325.597	-60.88
3337.663	-61.88
3349.691	-60.88
3361.681	-54.88
3373.633	-60.88
3385.547	-59.88
3397.424	-51.88
3409.263	-59.88
3421.065	-58.88
3432.829	-60.88
3444.557	-54.88
3456.247	-62.88
3467.902	-68.88
3479.519	-61.88
3491.101	-64.88
3502.646	-64.88
3514.155	-57.88
3525.629	-71.88
3537.067	-68.88
3548.469	-69.88
3559.837	-58.88
3571.169	-68.88
3582.466	-61.88
3593.728	-63.88
3604.956	-66.88
3616.149	-65.88
3627.307	-71.88
3638.432	-71.88
3649.523	-68.88
3660.579	-66.88
3671.602	-68.88
3682.591	-67.88
3693.547	-63.88
3704.47	-71.88
3715.359	-70.88
3726.216	-74.88
3737.039	-70.88
3747.83	-75.88
3758.589	-73.88
3769.315	-73.88
3780.008	-78.88
3790.67	-74.88
3801.299	-75.88
3811.897	-72.88
3822.463	-68.88
3832.998	-65.88
3843.501	-68.88
3853.973	-63.88
3864.414	-72.88
3874.823	-38.88
3885.202	70.12
3895.55	-58.88
3905.868	-69.88
3916.155	-70.88
3926.411	-71.88
3936.638	-76.88
3946.834	-70.88
3957	-70.88
3967.137	-68.88
3977.244	-75.88
3987.321	-69.88
3997.369	-74.88
4007.388	-66.88
4017.377	-63.88
4027.338	-67.88
4037.269	-72.88
4047.172	-70.88
4057.046	-72.88
4066.891	-71.88
4076.708	-71.88
4086.497	-77.88
4096.257	-72.88
4105.989	45.12
4115.694	32.12
4125.37	-73.88
4135.019	-74.88
4142.237	-78.88