File: Data/Raman/2017-08-29 - Alluminum 2/Aug 29 2017 - Aluminum 2/EC 110 5_RamanShift_1.txt
Data from EC 110 5_RamanShift_1.txt Node

Date: Tue Aug 29 12:51:07 IDT 2017
User: aro
Spectrometer: QEPB0276
Trigger mode: 0
Integration Time (sec): 3.000000E1
Scans to average: 1
Electric dark correction enabled: true
Nonlinearity correction enabled: false
Boxcar width: 0
XAxis mode: Raman Shifts
Number of Pixels in Spectrum: 1044
>>>>>Begin Spectral Data<<<<<
160.701	29.88
184.826	431.88
208.845	1891.88
232.758	2026.88
256.565	2195.88
280.267	2341.88
303.865	2507.88
327.359	2592.88
350.751	2663.88
374.04	2899.88
397.228	2944.88
420.315	4263.88
443.302	2997.88
466.189	2773.88
488.978	2659.88
511.668	2124.88
534.261	1613.88
556.756	1472.88
579.155	1452.88
601.459	1411.88
623.667	1364.88
645.781	1702.88
667.8	1310.88
689.726	1221.88
711.56	1196.88
733.301	1193.88
754.951	1346.88
776.509	1295.88
797.977	1373.88
819.355	1307.88
840.644	1262.88
861.844	1179.88
882.955	1119.88
903.979	1082.88
924.916	1082.88
945.766	1083.88
966.529	1050.88
987.208	1023.88
1007.801	1054.88
1028.309	1091.88
1048.734	1111.88
1069.075	1088.88
1089.333	1092.88
1109.509	1056.88
1129.602	986.88
1149.614	1007.88
1169.545	1027.88
1189.395	1011.88
1209.165	1019.88
1228.856	1033.88
1248.467	1008.88
1268	936.88
1287.455	908.88
1306.832	926.88
1326.132	917.88
1345.354	834.88
1364.501	846.88
1383.572	877.88
1402.567	842.88
1421.487	804.88
1440.333	805.88
1459.104	810.88
1477.802	771.88
1496.426	779.88
1514.978	842.88
1533.457	839.88
1551.864	794.88
1570.199	783.88
1588.464	759.88
1606.657	724.88
1624.78	696.88
1642.834	698.88
1660.817	711.88
1678.732	683.88
1696.577	670.88
1714.355	709.88
1732.064	690.88
1749.705	628.88
1767.28	573.88
1784.787	551.88
1802.228	600.88
1819.603	595.88
1836.913	563.88
1854.156	545.88
1871.335	544.88
1888.449	541.88
1905.499	533.88
1922.485	548.88
1939.408	576.88
1956.267	567.88
1973.063	530.88
1989.797	475.88
2006.469	465.88
2023.078	455.88
2039.627	423.88
2056.114	426.88
2072.54	437.88
2088.906	455.88
2105.211	451.88
2121.457	428.88
2137.643	404.88
2153.77	399.88
2169.838	378.88
2185.848	367.88
2201.799	341.88
2217.693	341.88
2233.529	354.88
2249.307	345.88
2265.029	329.88
2280.694	314.88
2296.302	305.88
2311.854	292.88
2327.351	307.88
2342.792	287.88
2358.178	282.88
2373.508	288.88
2388.785	277.88
2404.007	273.88
2419.174	256.88
2434.289	253.88
2449.349	244.88
2464.356	229.88
2479.311	230.88
2494.213	229.88
2509.062	218.88
2523.859	221.88
2538.605	215.88
2553.299	218.88
2567.941	227.88
2582.533	218.88
2597.073	202.88
2611.564	205.88
2626.004	186.88
2640.394	181.88
2654.734	165.88
2669.025	152.88
2683.266	155.88
2697.458	135.88
2711.602	121.88
2725.697	117.88
2739.744	117.88
2753.743	123.88
2767.695	125.88
2781.598	115.88
2795.455	108.88
2809.264	100.88
2823.026	106.88
2836.742	108.88
2850.412	93.88
2864.035	96.88
2877.613	78.88
2891.145	71.88
2904.631	65.88
2918.073	56.88
2931.469	52.88
2944.821	52.88
2958.128	41.88
2971.39	33.88
2984.609	32.88
2997.784	44.88
3010.915	30.88
3024.002	20.88
3037.046	20.88
3050.048	6.88
3063.006	7.88
3075.922	3.88
3088.795	1.88
3101.627	-2.12
3114.416	6.88
3127.163	-1.12
3139.869	3.88
3152.533	-5.12
3165.157	-13.12
3177.739	-11.12
3190.28	-16.12
3202.781	-22.12
3215.241	-28.12
3227.661	-28.12
3240.041	-33.12
3252.382	-26.12
3264.682	-39.12
3276.943	-29.12
3289.165	-33.12
3301.348	-38.12
3313.492	-42.12
3325.597	-47.12
3337.663	-52.12
3349.691	-45.12
3361.681	-48.12
3373.633	-50.12
3385.547	-52.12
3397.424	-51.12
3409.263	-54.12
3421.065	-56.12
3432.829	-55.12
3444.557	-52.12
3456.247	-62.12
3467.902	-61.12
3479.519	-56.12
3491.101	-58.12
3502.646	-58.12
3514.155	-61.12
3525.629	-64.12
3537.067	-63.12
3548.469	-69.12
3559.837	-62.12
3571.169	-67.12
3582.466	-60.12
3593.728	-61.12
3604.956	-67.12
3616.149	-72.12
3627.307	-70.12
3638.432	-65.12
3649.523	-68.12
3660.579	-71.12
3671.602	-71.12
3682.591	-69.12
3693.547	-69.12
3704.47	-75.12
3715.359	-74.12
3726.216	-77.12
3737.039	-76.12
3747.83	-74.12
3758.589	-77.12
3769.315	-76.12
3780.008	-83.12
3790.67	-79.12
3801.299	-75.12
3811.897	-77.12
3822.463	-76.12
3832.998	-72.12
3843.501	-73.12
3853.973	-70.12
3864.414	-71.12
3874.823	-42.12
3885.202	35.88
3895.55	-60.12
3905.868	-77.12
3916.155	-78.12
3926.411	-72.12
3936.638	-77.12
3946.834	-77.12
3957	-74.12
3967.137	-74.12
3977.244	-70.12
3987.321	-74.12
3997.369	-77.12
4007.388	-74.12
4017.377	-70.12
4027.338	-68.12
4037.269	-76.12
4047.172	-75.12
4057.046	-73.12
4066.891	-79.12
4076.708	-78.12
4086.497	-79.12
4096.257	-78.12
4105.989	42.88
4115.694	26.88
4125.37	-78.12
4135.019	-79.12
4142.237	-81.12