File: Data/Raman/2017-08-29 - Alluminum 2/Aug 29 2017 - Aluminum 2/EC 110 2_RamanShift_1.txt
Data from EC 110 2_RamanShift_1.txt Node

Date: Tue Aug 29 12:10:07 IDT 2017
User: aro
Spectrometer: QEPB0276
Trigger mode: 0
Integration Time (sec): 3.000000E1
Scans to average: 1
Electric dark correction enabled: true
Nonlinearity correction enabled: false
Boxcar width: 0
XAxis mode: Raman Shifts
Number of Pixels in Spectrum: 1044
>>>>>Begin Spectral Data<<<<<
160.701	36.38
184.826	659.38
208.845	3008.38
232.758	3265.38
256.565	3489.38
280.267	3685.38
303.865	3902.38
327.359	4010.38
350.751	4109.38
374.04	4342.38
397.228	4403.38
420.315	6022.38
443.302	4452.38
466.189	4163.38
488.978	4045.38
511.668	3389.38
534.261	2779.38
556.756	2584.38
579.155	2541.38
601.459	2512.38
623.667	2413.38
645.781	2820.38
667.8	2312.38
689.726	2216.38
711.56	2148.38
733.301	2147.38
754.951	2291.38
776.509	2191.38
797.977	2294.38
819.355	2199.38
840.644	2123.38
861.844	2005.38
882.955	1924.38
903.979	1861.38
924.916	1862.38
945.766	1844.38
966.529	1799.38
987.208	1734.38
1007.801	1773.38
1028.309	1829.38
1048.734	1800.38
1069.075	1751.38
1089.333	1752.38
1109.509	1722.38
1129.602	1599.38
1149.614	1608.38
1169.545	1632.38
1189.395	1598.38
1209.165	1596.38
1228.856	1627.38
1248.467	1577.38
1268	1476.38
1287.455	1421.38
1306.832	1441.38
1326.132	1409.38
1345.354	1320.38
1364.501	1284.38
1383.572	1317.38
1402.567	1234.38
1421.487	1205.38
1440.333	1228.38
1459.104	1223.38
1477.802	1146.38
1496.426	1142.38
1514.978	1169.38
1533.457	1156.38
1551.864	1129.38
1570.199	1088.38
1588.464	1062.38
1606.657	1023.38
1624.78	974.38
1642.834	983.38
1660.817	987.38
1678.732	941.38
1696.577	907.38
1714.355	921.38
1732.064	900.38
1749.705	826.38
1767.28	759.38
1784.787	731.38
1802.228	758.38
1819.603	725.38
1836.913	696.38
1854.156	685.38
1871.335	698.38
1888.449	678.38
1905.499	653.38
1922.485	673.38
1939.408	681.38
1956.267	666.38
1973.063	614.38
1989.797	567.38
2006.469	558.38
2023.078	540.38
2039.627	495.38
2056.114	498.38
2072.54	499.38
2088.906	517.38
2105.211	495.38
2121.457	475.38
2137.643	458.38
2153.77	447.38
2169.838	418.38
2185.848	391.38
2201.799	393.38
2217.693	388.38
2233.529	386.38
2249.307	374.38
2265.029	357.38
2280.694	327.38
2296.302	319.38
2311.854	311.38
2327.351	309.38
2342.792	300.38
2358.178	286.38
2373.508	283.38
2388.785	279.38
2404.007	271.38
2419.174	275.38
2434.289	261.38
2449.349	252.38
2464.356	227.38
2479.311	227.38
2494.213	219.38
2509.062	208.38
2523.859	204.38
2538.605	213.38
2553.299	198.38
2567.941	206.38
2582.533	198.38
2597.073	188.38
2611.564	179.38
2626.004	161.38
2640.394	164.38
2654.734	141.38
2669.025	127.38
2683.266	126.38
2697.458	107.38
2711.602	93.38
2725.697	77.38
2739.744	83.38
2753.743	79.38
2767.695	84.38
2781.598	69.38
2795.455	75.38
2809.264	58.38
2823.026	73.38
2836.742	67.38
2850.412	52.38
2864.035	62.38
2877.613	49.38
2891.145	45.38
2904.631	29.38
2918.073	18.38
2931.469	16.38
2944.821	7.38
2958.128	3.38
2971.39	-0.62
2984.609	-7.62
2997.784	-6.62
3010.915	-6.62
3024.002	-19.62
3037.046	-17.62
3050.048	-32.62
3063.006	-32.62
3075.922	-27.62
3088.795	-32.62
3101.627	-31.62
3114.416	-33.62
3127.163	-38.62
3139.869	-36.62
3152.533	-49.62
3165.157	-49.62
3177.739	-56.62
3190.28	-54.62
3202.781	-63.62
3215.241	-66.62
3227.661	-68.62
3240.041	-69.62
3252.382	-70.62
3264.682	-72.62
3276.943	-72.62
3289.165	-72.62
3301.348	-78.62
3313.492	-77.62
3325.597	-84.62
3337.663	-84.62
3349.691	-84.62
3361.681	-86.62
3373.633	-81.62
3385.547	-85.62
3397.424	-86.62
3409.263	-92.62
3421.065	-90.62
3432.829	-88.62
3444.557	-88.62
3456.247	-94.62
3467.902	-94.62
3479.519	-92.62
3491.101	-94.62
3502.646	-94.62
3514.155	-96.62
3525.629	-103.62
3537.067	-101.62
3548.469	-105.62
3559.837	-101.62
3571.169	-103.62
3582.466	-98.62
3593.728	-97.62
3604.956	-101.62
3616.149	-111.62
3627.307	-105.62
3638.432	-104.62
3649.523	-103.62
3660.579	-107.62
3671.602	-103.62
3682.591	-103.62
3693.547	-104.62
3704.47	-113.62
3715.359	-111.62
3726.216	-112.62
3737.039	-109.62
3747.83	-112.62
3758.589	-104.62
3769.315	-109.62
3780.008	-117.62
3790.67	-107.62
3801.299	-110.62
3811.897	-107.62
3822.463	-106.62
3832.998	-104.62
3843.501	-105.62
3853.973	-108.62
3864.414	-106.62
3874.823	-68.62
3885.202	80.38
3895.55	-89.62
3905.868	-108.62
3916.155	-108.62
3926.411	-107.62
3936.638	-112.62
3946.834	-108.62
3957	-105.62
3967.137	-107.62
3977.244	-107.62
3987.321	-103.62
3997.369	-108.62
4007.388	-106.62
4017.377	-104.62
4027.338	-102.62
4037.269	-109.62
4047.172	-104.62
4057.046	-102.62
4066.891	-111.62
4076.708	-110.62
4086.497	-108.62
4096.257	-113.62
4105.989	36.38
4115.694	20.38
4125.37	-107.62
4135.019	-112.62
4142.237	-116.62