File: Data/Raman/2017-08-29 - Alluminum 2/Aug 29 2017 - Aluminum 2/EC 11 3_RamanShift_1.txt
Data from EC 11 3_RamanShift_1.txt Node

Date: Tue Aug 29 12:41:07 IDT 2017
User: aro
Spectrometer: QEPB0276
Trigger mode: 0
Integration Time (sec): 3.000000E1
Scans to average: 1
Electric dark correction enabled: true
Nonlinearity correction enabled: false
Boxcar width: 0
XAxis mode: Raman Shifts
Number of Pixels in Spectrum: 1044
>>>>>Begin Spectral Data<<<<<
160.701	17.5
184.826	1116.5
208.845	5266.5
232.758	5874.5
256.565	6342.5
280.267	6607.5
303.865	6884.5
327.359	7038.5
350.751	7133.5
374.04	7269.5
397.228	7292.5
420.315	8520.5
443.302	7359.5
466.189	7158.5
488.978	6992.5
511.668	6467.5
534.261	5940.5
556.756	5765.5
579.155	5689.5
601.459	5577.5
623.667	5455.5
645.781	5692.5
667.8	5318.5
689.726	5182.5
711.56	5081.5
733.301	5017.5
754.951	5084.5
776.509	5040.5
797.977	5063.5
819.355	4905.5
840.644	4825.5
861.844	4783.5
882.955	4654.5
903.979	4528.5
924.916	4515.5
945.766	4471.5
966.529	4345.5
987.208	4220.5
1007.801	4290.5
1028.309	4339.5
1048.734	4266.5
1069.075	4128.5
1089.333	4158.5
1109.509	4114.5
1129.602	3909.5
1149.614	3867.5
1169.545	3859.5
1189.395	3781.5
1209.165	3747.5
1228.856	3804.5
1248.467	3743.5
1268	3501.5
1287.455	3409.5
1306.832	3448.5
1326.132	3325.5
1345.354	3051.5
1364.501	2958.5
1383.572	3114.5
1402.567	3003.5
1421.487	2860.5
1440.333	2868.5
1459.104	2801.5
1477.802	2620.5
1496.426	2572.5
1514.978	2746.5
1533.457	2747.5
1551.864	2632.5
1570.199	2543.5
1588.464	2486.5
1606.657	2357.5
1624.78	2232.5
1642.834	2211.5
1660.817	2237.5
1678.732	2125.5
1696.577	1977.5
1714.355	2114.5
1732.064	2083.5
1749.705	1899.5
1767.28	1712.5
1784.787	1634.5
1802.228	1756.5
1819.603	1731.5
1836.913	1611.5
1854.156	1585.5
1871.335	1583.5
1888.449	1558.5
1905.499	1475.5
1922.485	1511.5
1939.408	1574.5
1956.267	1547.5
1973.063	1419.5
1989.797	1339.5
2006.469	1302.5
2023.078	1233.5
2039.627	1173.5
2056.114	1142.5
2072.54	1141.5
2088.906	1171.5
2105.211	1135.5
2121.457	1120.5
2137.643	1066.5
2153.77	1051.5
2169.838	1007.5
2185.848	939.5
2201.799	916.5
2217.693	897.5
2233.529	904.5
2249.307	849.5
2265.029	821.5
2280.694	790.5
2296.302	758.5
2311.854	729.5
2327.351	717.5
2342.792	698.5
2358.178	681.5
2373.508	688.5
2388.785	682.5
2404.007	666.5
2419.174	660.5
2434.289	628.5
2449.349	620.5
2464.356	563.5
2479.311	557.5
2494.213	545.5
2509.062	537.5
2523.859	533.5
2538.605	521.5
2553.299	518.5
2567.941	507.5
2582.533	490.5
2597.073	470.5
2611.564	454.5
2626.004	430.5
2640.394	397.5
2654.734	375.5
2669.025	350.5
2683.266	327.5
2697.458	289.5
2711.602	266.5
2725.697	247.5
2739.744	236.5
2753.743	234.5
2767.695	246.5
2781.598	241.5
2795.455	212.5
2809.264	212.5
2823.026	210.5
2836.742	205.5
2850.412	193.5
2864.035	182.5
2877.613	166.5
2891.145	154.5
2904.631	135.5
2918.073	120.5
2931.469	107.5
2944.821	95.5
2958.128	74.5
2971.39	68.5
2984.609	62.5
2997.784	63.5
3010.915	52.5
3024.002	41.5
3037.046	18.5
3050.048	20.5
3063.006	6.5
3075.922	4.5
3088.795	1.5
3101.627	2.5
3114.416	-5.5
3127.163	-17.5
3139.869	-6.5
3152.533	-22.5
3165.157	-33.5
3177.739	-38.5
3190.28	-48.5
3202.781	-56.5
3215.241	-60.5
3227.661	-66.5
3240.041	-76.5
3252.382	-73.5
3264.682	-72.5
3276.943	-79.5
3289.165	-85.5
3301.348	-90.5
3313.492	-96.5
3325.597	-104.5
3337.663	-102.5
3349.691	-99.5
3361.681	-102.5
3373.633	-103.5
3385.547	-111.5
3397.424	-107.5
3409.263	-113.5
3421.065	-114.5
3432.829	-113.5
3444.557	-109.5
3456.247	-122.5
3467.902	-124.5
3479.519	-118.5
3491.101	-122.5
3502.646	-124.5
3514.155	-123.5
3525.629	-134.5
3537.067	-129.5
3548.469	-133.5
3559.837	-132.5
3571.169	-138.5
3582.466	-140.5
3593.728	-131.5
3604.956	-139.5
3616.149	-149.5
3627.307	-144.5
3638.432	-141.5
3649.523	-142.5
3660.579	-146.5
3671.602	-140.5
3682.591	-142.5
3693.547	-143.5
3704.47	-152.5
3715.359	-142.5
3726.216	-153.5
3737.039	-147.5
3747.83	-148.5
3758.589	-150.5
3769.315	-146.5
3780.008	-154.5
3790.67	-150.5
3801.299	-145.5
3811.897	-148.5
3822.463	-147.5
3832.998	-147.5
3843.501	-142.5
3853.973	-145.5
3864.414	-146.5
3874.823	-119.5
3885.202	-42.5
3895.55	-138.5
3905.868	-148.5
3916.155	-147.5
3926.411	-148.5
3936.638	-155.5
3946.834	-149.5
3957	-149.5
3967.137	-147.5
3977.244	-152.5
3987.321	-143.5
3997.369	-145.5
4007.388	-139.5
4017.377	-145.5
4027.338	-144.5
4037.269	-151.5
4047.172	-147.5
4057.046	-150.5
4066.891	-150.5
4076.708	-147.5
4086.497	-147.5
4096.257	-153.5
4105.989	-16.5
4115.694	-7.5
4125.37	-141.5
4135.019	-153.5
4142.237	-159.5