File: Data/Raman/2017-08-29 - Alluminum 2/Aug 29 2017 - Aluminum 2/EC 12 5_RamanShift_1.txt
Data from EC 12 5_RamanShift_1.txt Node

Date: Tue Aug 29 12:53:37 IDT 2017
User: aro
Spectrometer: QEPB0276
Trigger mode: 0
Integration Time (sec): 3.000000E1
Scans to average: 1
Electric dark correction enabled: true
Nonlinearity correction enabled: false
Boxcar width: 0
XAxis mode: Raman Shifts
Number of Pixels in Spectrum: 1044
>>>>>Begin Spectral Data<<<<<
160.701	20.88
184.826	554.88
208.845	2557.88
232.758	2826.88
256.565	3037.88
280.267	3209.88
303.865	3403.88
327.359	3492.88
350.751	3541.88
374.04	3721.88
397.228	3730.88
420.315	4844.88
443.302	3836.88
466.189	3656.88
488.978	3569.88
511.668	3116.88
534.261	2689.88
556.756	2564.88
579.155	2537.88
601.459	2481.88
623.667	2437.88
645.781	2663.88
667.8	2380.88
689.726	2270.88
711.56	2230.88
733.301	2267.88
754.951	2378.88
776.509	2325.88
797.977	2375.88
819.355	2302.88
840.644	2285.88
861.844	2208.88
882.955	2143.88
903.979	2079.88
924.916	2077.88
945.766	2099.88
966.529	2038.88
987.208	1968.88
1007.801	2024.88
1028.309	2063.88
1048.734	2034.88
1069.075	2005.88
1089.333	2006.88
1109.509	1991.88
1129.602	1886.88
1149.614	1883.88
1169.545	1922.88
1189.395	1848.88
1209.165	1843.88
1228.856	1893.88
1248.467	1866.88
1268	1745.88
1287.455	1702.88
1306.832	1739.88
1326.132	1680.88
1345.354	1570.88
1364.501	1533.88
1383.572	1610.88
1402.567	1524.88
1421.487	1458.88
1440.333	1475.88
1459.104	1465.88
1477.802	1379.88
1496.426	1362.88
1514.978	1445.88
1533.457	1440.88
1551.864	1399.88
1570.199	1333.88
1588.464	1314.88
1606.657	1239.88
1624.78	1193.88
1642.834	1192.88
1660.817	1218.88
1678.732	1167.88
1696.577	1105.88
1714.355	1173.88
1732.064	1127.88
1749.705	1039.88
1767.28	947.88
1784.787	905.88
1802.228	986.88
1819.603	937.88
1836.913	903.88
1854.156	883.88
1871.335	886.88
1888.449	877.88
1905.499	843.88
1922.485	864.88
1939.408	896.88
1956.267	874.88
1973.063	814.88
1989.797	752.88
2006.469	734.88
2023.078	720.88
2039.627	681.88
2056.114	655.88
2072.54	667.88
2088.906	695.88
2105.211	680.88
2121.457	652.88
2137.643	633.88
2153.77	619.88
2169.838	592.88
2185.848	565.88
2201.799	538.88
2217.693	536.88
2233.529	537.88
2249.307	516.88
2265.029	506.88
2280.694	477.88
2296.302	459.88
2311.854	444.88
2327.351	444.88
2342.792	419.88
2358.178	427.88
2373.508	417.88
2388.785	416.88
2404.007	409.88
2419.174	399.88
2434.289	397.88
2449.349	377.88
2464.356	353.88
2479.311	341.88
2494.213	350.88
2509.062	346.88
2523.859	338.88
2538.605	329.88
2553.299	332.88
2567.941	327.88
2582.533	327.88
2597.073	310.88
2611.564	300.88
2626.004	284.88
2640.394	272.88
2654.734	255.88
2669.025	235.88
2683.266	223.88
2697.458	206.88
2711.602	181.88
2725.697	165.88
2739.744	167.88
2753.743	173.88
2767.695	189.88
2781.598	172.88
2795.455	167.88
2809.264	153.88
2823.026	155.88
2836.742	153.88
2850.412	140.88
2864.035	144.88
2877.613	140.88
2891.145	126.88
2904.631	120.88
2918.073	113.88
2931.469	101.88
2944.821	90.88
2958.128	80.88
2971.39	64.88
2984.609	57.88
2997.784	66.88
3010.915	57.88
3024.002	43.88
3037.046	32.88
3050.048	29.88
3063.006	27.88
3075.922	20.88
3088.795	15.88
3101.627	17.88
3114.416	14.88
3127.163	13.88
3139.869	6.88
3152.533	0.88
3165.157	-4.12
3177.739	0.88
3190.28	-14.12
3202.781	-18.12
3215.241	-20.12
3227.661	-30.12
3240.041	-30.12
3252.382	-28.12
3264.682	-30.12
3276.943	-40.12
3289.165	-41.12
3301.348	-41.12
3313.492	-43.12
3325.597	-45.12
3337.663	-55.12
3349.691	-52.12
3361.681	-52.12
3373.633	-52.12
3385.547	-58.12
3397.424	-54.12
3409.263	-56.12
3421.065	-59.12
3432.829	-62.12
3444.557	-59.12
3456.247	-67.12
3467.902	-69.12
3479.519	-65.12
3491.101	-69.12
3502.646	-68.12
3514.155	-68.12
3525.629	-76.12
3537.067	-70.12
3548.469	-74.12
3559.837	-68.12
3571.169	-75.12
3582.466	-75.12
3593.728	-70.12
3604.956	-77.12
3616.149	-82.12
3627.307	-82.12
3638.432	-77.12
3649.523	-86.12
3660.579	-81.12
3671.602	-82.12
3682.591	-82.12
3693.547	-78.12
3704.47	-89.12
3715.359	-78.12
3726.216	-86.12
3737.039	-86.12
3747.83	-83.12
3758.589	-84.12
3769.315	-88.12
3780.008	-92.12
3790.67	-85.12
3801.299	-83.12
3811.897	-84.12
3822.463	-82.12
3832.998	-80.12
3843.501	-83.12
3853.973	-82.12
3864.414	-77.12
3874.823	-59.12
3885.202	9.88
3895.55	-79.12
3905.868	-90.12
3916.155	-90.12
3926.411	-89.12
3936.638	-90.12
3946.834	-86.12
3957	-87.12
3967.137	-82.12
3977.244	-87.12
3987.321	-84.12
3997.369	-83.12
4007.388	-80.12
4017.377	-81.12
4027.338	-81.12
4037.269	-82.12
4047.172	-86.12
4057.046	-83.12
4066.891	-87.12
4076.708	-89.12
4086.497	-88.12
4096.257	-89.12
4105.989	24.88
4115.694	10.88
4125.37	-92.12
4135.019	-92.12
4142.237	-97.12