File: Data/Raman/2017-08-29 - Alluminum 2/Aug 29 2017 - Aluminum 2/EC 12 4_RamanShift_3.txt
Data from EC 12 4_RamanShift_3.txt Node

Date: Tue Aug 29 12:40:07 IDT 2017
User: aro
Spectrometer: QEPB0276
Trigger mode: 0
Integration Time (sec): 3.000000E1
Scans to average: 1
Electric dark correction enabled: true
Nonlinearity correction enabled: false
Boxcar width: 0
XAxis mode: Raman Shifts
Number of Pixels in Spectrum: 1044
>>>>>Begin Spectral Data<<<<<
160.701	25.12
184.826	568.12
208.845	2575.12
232.758	2768.12
256.565	2952.12
280.267	3124.12
303.865	3271.12
327.359	3367.12
350.751	3457.12
374.04	3670.12
397.228	3671.12
420.315	4836.12
443.302	3716.12
466.189	3521.12
488.978	3436.12
511.668	2933.12
534.261	2465.12
556.756	2336.12
579.155	2301.12
601.459	2266.12
623.667	2176.12
645.781	2459.12
667.8	2112.12
689.726	2037.12
711.56	1977.12
733.301	1977.12
754.951	2072.12
776.509	2025.12
797.977	2095.12
819.355	2015.12
840.644	1967.12
861.844	1884.12
882.955	1809.12
903.979	1760.12
924.916	1756.12
945.766	1754.12
966.529	1703.12
987.208	1645.12
1007.801	1668.12
1028.309	1720.12
1048.734	1707.12
1069.075	1651.12
1089.333	1658.12
1109.509	1634.12
1129.602	1528.12
1149.614	1512.12
1169.545	1537.12
1189.395	1520.12
1209.165	1502.12
1228.856	1565.12
1248.467	1503.12
1268	1420.12
1287.455	1353.12
1306.832	1401.12
1326.132	1350.12
1345.354	1267.12
1364.501	1242.12
1383.572	1266.12
1402.567	1240.12
1421.487	1168.12
1440.333	1182.12
1459.104	1176.12
1477.802	1111.12
1496.426	1119.12
1514.978	1183.12
1533.457	1179.12
1551.864	1134.12
1570.199	1085.12
1588.464	1065.12
1606.657	1016.12
1624.78	967.12
1642.834	968.12
1660.817	984.12
1678.732	955.12
1696.577	925.12
1714.355	969.12
1732.064	917.12
1749.705	854.12
1767.28	778.12
1784.787	752.12
1802.228	793.12
1819.603	770.12
1836.913	728.12
1854.156	711.12
1871.335	719.12
1888.449	700.12
1905.499	694.12
1922.485	701.12
1939.408	742.12
1956.267	711.12
1973.063	655.12
1989.797	614.12
2006.469	602.12
2023.078	571.12
2039.627	556.12
2056.114	528.12
2072.54	543.12
2088.906	566.12
2105.211	551.12
2121.457	516.12
2137.643	499.12
2153.77	495.12
2169.838	464.12
2185.848	435.12
2201.799	420.12
2217.693	419.12
2233.529	420.12
2249.307	400.12
2265.029	384.12
2280.694	370.12
2296.302	358.12
2311.854	340.12
2327.351	341.12
2342.792	320.12
2358.178	309.12
2373.508	318.12
2388.785	315.12
2404.007	304.12
2419.174	306.12
2434.289	290.12
2449.349	272.12
2464.356	261.12
2479.311	258.12
2494.213	247.12
2509.062	251.12
2523.859	245.12
2538.605	235.12
2553.299	246.12
2567.941	246.12
2582.533	235.12
2597.073	226.12
2611.564	211.12
2626.004	197.12
2640.394	187.12
2654.734	178.12
2669.025	164.12
2683.266	157.12
2697.458	138.12
2711.602	121.12
2725.697	109.12
2739.744	111.12
2753.743	119.12
2767.695	121.12
2781.598	108.12
2795.455	98.12
2809.264	103.12
2823.026	95.12
2836.742	102.12
2850.412	85.12
2864.035	87.12
2877.613	80.12
2891.145	73.12
2904.631	55.12
2918.073	56.12
2931.469	53.12
2944.821	45.12
2958.128	37.12
2971.39	30.12
2984.609	18.12
2997.784	26.12
3010.915	23.12
3024.002	8.12
3037.046	3.12
3050.048	-2.88
3063.006	-6.88
3075.922	-12.88
3088.795	-2.88
3101.627	-8.88
3114.416	-7.88
3127.163	-12.88
3139.869	-17.88
3152.533	-24.88
3165.157	-28.88
3177.739	-28.88
3190.28	-34.88
3202.781	-36.88
3215.241	-36.88
3227.661	-43.88
3240.041	-51.88
3252.382	-47.88
3264.682	-47.88
3276.943	-48.88
3289.165	-51.88
3301.348	-54.88
3313.492	-59.88
3325.597	-64.88
3337.663	-66.88
3349.691	-67.88
3361.681	-63.88
3373.633	-64.88
3385.547	-65.88
3397.424	-67.88
3409.263	-70.88
3421.065	-65.88
3432.829	-68.88
3444.557	-69.88
3456.247	-70.88
3467.902	-77.88
3479.519	-73.88
3491.101	-76.88
3502.646	-73.88
3514.155	-73.88
3525.629	-76.88
3537.067	-79.88
3548.469	-84.88
3559.837	-80.88
3571.169	-78.88
3582.466	-84.88
3593.728	-78.88
3604.956	-82.88
3616.149	-88.88
3627.307	-82.88
3638.432	-85.88
3649.523	-87.88
3660.579	-80.88
3671.602	-82.88
3682.591	-82.88
3693.547	-85.88
3704.47	-86.88
3715.359	-88.88
3726.216	-91.88
3737.039	-91.88
3747.83	-90.88
3758.589	-90.88
3769.315	-88.88
3780.008	-95.88
3790.67	-94.88
3801.299	-92.88
3811.897	-87.88
3822.463	-87.88
3832.998	-88.88
3843.501	-85.88
3853.973	-87.88
3864.414	-87.88
3874.823	-54.88
3885.202	33.12
3895.55	-77.88
3905.868	-89.88
3916.155	-89.88
3926.411	-87.88
3936.638	-95.88
3946.834	-93.88
3957	-89.88
3967.137	-85.88
3977.244	-92.88
3987.321	-89.88
3997.369	-87.88
4007.388	-79.88
4017.377	-85.88
4027.338	-85.88
4037.269	-86.88
4047.172	-86.88
4057.046	-87.88
4066.891	-91.88
4076.708	-91.88
4086.497	-94.88
4096.257	-92.88
4105.989	23.12
4115.694	23.12
4125.37	-89.88
4135.019	-93.88
4142.237	-95.88