File: Data/Raman/2017-08-29 - Alluminum 2/Aug 29 2017 - Aluminum 2/EC 12 1_RamanShift_1.txt
Data from EC 12 1_RamanShift_1.txt Node

Date: Tue Aug 29 12:12:37 IDT 2017
User: aro
Spectrometer: QEPB0276
Trigger mode: 0
Integration Time (sec): 3.000000E1
Scans to average: 1
Electric dark correction enabled: true
Nonlinearity correction enabled: false
Boxcar width: 0
XAxis mode: Raman Shifts
Number of Pixels in Spectrum: 1044
>>>>>Begin Spectral Data<<<<<
160.701	18.38
184.826	676.38
208.845	3124.38
232.758	3368.38
256.565	3603.38
280.267	3768.38
303.865	3969.38
327.359	4043.38
350.751	4156.38
374.04	4342.38
397.228	4381.38
420.315	5846.38
443.302	4451.38
466.189	4155.38
488.978	4047.38
511.668	3490.38
534.261	2920.38
556.756	2746.38
579.155	2714.38
601.459	2671.38
623.667	2573.38
645.781	2949.38
667.8	2476.38
689.726	2373.38
711.56	2310.38
733.301	2294.38
754.951	2451.38
776.509	2370.38
797.977	2415.38
819.355	2350.38
840.644	2256.38
861.844	2191.38
882.955	2086.38
903.979	2035.38
924.916	2009.38
945.766	1980.38
966.529	1948.38
987.208	1880.38
1007.801	1916.38
1028.309	1964.38
1048.734	1933.38
1069.075	1868.38
1089.333	1889.38
1109.509	1852.38
1129.602	1752.38
1149.614	1737.38
1169.545	1755.38
1189.395	1717.38
1209.165	1713.38
1228.856	1726.38
1248.467	1691.38
1268	1600.38
1287.455	1548.38
1306.832	1563.38
1326.132	1520.38
1345.354	1413.38
1364.501	1395.38
1383.572	1401.38
1402.567	1356.38
1421.487	1293.38
1440.333	1323.38
1459.104	1297.38
1477.802	1234.38
1496.426	1231.38
1514.978	1284.38
1533.457	1276.38
1551.864	1214.38
1570.199	1181.38
1588.464	1156.38
1606.657	1091.38
1624.78	1052.38
1642.834	1055.38
1660.817	1066.38
1678.732	1022.38
1696.577	986.38
1714.355	1003.38
1732.064	972.38
1749.705	895.38
1767.28	820.38
1784.787	791.38
1802.228	825.38
1819.603	805.38
1836.913	758.38
1854.156	751.38
1871.335	759.38
1888.449	741.38
1905.499	734.38
1922.485	744.38
1939.408	754.38
1956.267	740.38
1973.063	680.38
1989.797	607.38
2006.469	622.38
2023.078	582.38
2039.627	549.38
2056.114	527.38
2072.54	559.38
2088.906	558.38
2105.211	547.38
2121.457	536.38
2137.643	502.38
2153.77	488.38
2169.838	457.38
2185.848	441.38
2201.799	425.38
2217.693	420.38
2233.529	419.38
2249.307	400.38
2265.029	387.38
2280.694	362.38
2296.302	355.38
2311.854	337.38
2327.351	335.38
2342.792	307.38
2358.178	300.38
2373.508	312.38
2388.785	303.38
2404.007	308.38
2419.174	288.38
2434.289	295.38
2449.349	269.38
2464.356	256.38
2479.311	256.38
2494.213	247.38
2509.062	247.38
2523.859	234.38
2538.605	236.38
2553.299	234.38
2567.941	224.38
2582.533	207.38
2597.073	203.38
2611.564	198.38
2626.004	186.38
2640.394	164.38
2654.734	162.38
2669.025	142.38
2683.266	138.38
2697.458	112.38
2711.602	114.38
2725.697	96.38
2739.744	100.38
2753.743	98.38
2767.695	103.38
2781.598	89.38
2795.455	87.38
2809.264	79.38
2823.026	77.38
2836.742	74.38
2850.412	72.38
2864.035	68.38
2877.613	60.38
2891.145	52.38
2904.631	32.38
2918.073	34.38
2931.469	25.38
2944.821	22.38
2958.128	11.38
2971.39	3.38
2984.609	3.38
2997.784	8.38
3010.915	-2.62
3024.002	-10.62
3037.046	-9.62
3050.048	-20.62
3063.006	-27.62
3075.922	-25.62
3088.795	-24.62
3101.627	-21.62
3114.416	-33.62
3127.163	-34.62
3139.869	-35.62
3152.533	-36.62
3165.157	-41.62
3177.739	-46.62
3190.28	-49.62
3202.781	-55.62
3215.241	-55.62
3227.661	-66.62
3240.041	-63.62
3252.382	-65.62
3264.682	-70.62
3276.943	-69.62
3289.165	-67.62
3301.348	-75.62
3313.492	-75.62
3325.597	-82.62
3337.663	-87.62
3349.691	-83.62
3361.681	-81.62
3373.633	-84.62
3385.547	-84.62
3397.424	-85.62
3409.263	-82.62
3421.065	-88.62
3432.829	-88.62
3444.557	-89.62
3456.247	-96.62
3467.902	-99.62
3479.519	-95.62
3491.101	-94.62
3502.646	-90.62
3514.155	-90.62
3525.629	-92.62
3537.067	-93.62
3548.469	-97.62
3559.837	-92.62
3571.169	-97.62
3582.466	-92.62
3593.728	-97.62
3604.956	-101.62
3616.149	-110.62
3627.307	-105.62
3638.432	-103.62
3649.523	-110.62
3660.579	-105.62
3671.602	-105.62
3682.591	-109.62
3693.547	-105.62
3704.47	-105.62
3715.359	-105.62
3726.216	-109.62
3737.039	-108.62
3747.83	-106.62
3758.589	-101.62
3769.315	-109.62
3780.008	-112.62
3790.67	-103.62
3801.299	-104.62
3811.897	-110.62
3822.463	-108.62
3832.998	-104.62
3843.501	-109.62
3853.973	-110.62
3864.414	-108.62
3874.823	-64.62
3885.202	69.38
3895.55	-85.62
3905.868	-104.62
3916.155	-110.62
3926.411	-104.62
3936.638	-110.62
3946.834	-107.62
3957	-106.62
3967.137	-102.62
3977.244	-105.62
3987.321	-104.62
3997.369	-105.62
4007.388	-104.62
4017.377	-106.62
4027.338	-106.62
4037.269	-106.62
4047.172	-105.62
4057.046	-105.62
4066.891	-110.62
4076.708	-109.62
4086.497	-109.62
4096.257	-109.62
4105.989	35.38
4115.694	19.38
4125.37	-107.62
4135.019	-109.62
4142.237	-111.62