File: Data/Raman/2017-08-29 - Alluminum 2/Aug 29 2017 - Aluminum 2/EC 12 4_RamanShift_2.txt
Data from EC 12 4_RamanShift_2.txt Node

Date: Tue Aug 29 12:39:37 IDT 2017
User: aro
Spectrometer: QEPB0276
Trigger mode: 0
Integration Time (sec): 3.000000E1
Scans to average: 1
Electric dark correction enabled: true
Nonlinearity correction enabled: false
Boxcar width: 0
XAxis mode: Raman Shifts
Number of Pixels in Spectrum: 1044
>>>>>Begin Spectral Data<<<<<
160.701	23.38
184.826	598.38
208.845	2741.38
232.758	2967.38
256.565	3167.38
280.267	3325.38
303.865	3512.38
327.359	3608.38
350.751	3709.38
374.04	3863.38
397.228	3874.38
420.315	5035.38
443.302	3932.38
466.189	3722.38
488.978	3595.38
511.668	3124.38
534.261	2656.38
556.756	2542.38
579.155	2482.38
601.459	2443.38
623.667	2358.38
645.781	2648.38
667.8	2284.38
689.726	2206.38
711.56	2139.38
733.301	2152.38
754.951	2239.38
776.509	2194.38
797.977	2265.38
819.355	2181.38
840.644	2126.38
861.844	2042.38
882.955	1972.38
903.979	1897.38
924.916	1895.38
945.766	1890.38
966.529	1835.38
987.208	1759.38
1007.801	1805.38
1028.309	1855.38
1048.734	1823.38
1069.075	1782.38
1089.333	1795.38
1109.509	1761.38
1129.602	1674.38
1149.614	1648.38
1169.545	1666.38
1189.395	1630.38
1209.165	1643.38
1228.856	1655.38
1248.467	1608.38
1268	1509.38
1287.455	1484.38
1306.832	1501.38
1326.132	1460.38
1345.354	1363.38
1364.501	1323.38
1383.572	1355.38
1402.567	1312.38
1421.487	1256.38
1440.333	1266.38
1459.104	1265.38
1477.802	1191.38
1496.426	1204.38
1514.978	1280.38
1533.457	1256.38
1551.864	1195.38
1570.199	1142.38
1588.464	1124.38
1606.657	1067.38
1624.78	1031.38
1642.834	1019.38
1660.817	1034.38
1678.732	985.38
1696.577	979.38
1714.355	1006.38
1732.064	974.38
1749.705	885.38
1767.28	818.38
1784.787	793.38
1802.228	834.38
1819.603	825.38
1836.913	782.38
1854.156	750.38
1871.335	761.38
1888.449	737.38
1905.499	723.38
1922.485	744.38
1939.408	768.38
1956.267	757.38
1973.063	683.38
1989.797	638.38
2006.469	623.38
2023.078	604.38
2039.627	563.38
2056.114	552.38
2072.54	575.38
2088.906	585.38
2105.211	578.38
2121.457	543.38
2137.643	524.38
2153.77	501.38
2169.838	484.38
2185.848	457.38
2201.799	443.38
2217.693	435.38
2233.529	432.38
2249.307	416.38
2265.029	403.38
2280.694	376.38
2296.302	362.38
2311.854	360.38
2327.351	359.38
2342.792	324.38
2358.178	323.38
2373.508	330.38
2388.785	324.38
2404.007	321.38
2419.174	306.38
2434.289	308.38
2449.349	284.38
2464.356	272.38
2479.311	257.38
2494.213	263.38
2509.062	265.38
2523.859	247.38
2538.605	253.38
2553.299	249.38
2567.941	247.38
2582.533	246.38
2597.073	225.38
2611.564	225.38
2626.004	202.38
2640.394	192.38
2654.734	176.38
2669.025	162.38
2683.266	151.38
2697.458	137.38
2711.602	120.38
2725.697	111.38
2739.744	113.38
2753.743	118.38
2767.695	122.38
2781.598	114.38
2795.455	109.38
2809.264	93.38
2823.026	103.38
2836.742	99.38
2850.412	91.38
2864.035	89.38
2877.613	82.38
2891.145	74.38
2904.631	57.38
2918.073	39.38
2931.469	47.38
2944.821	40.38
2958.128	28.38
2971.39	18.38
2984.609	22.38
2997.784	22.38
3010.915	16.38
3024.002	7.38
3037.046	4.38
3050.048	-5.62
3063.006	-9.62
3075.922	-12.62
3088.795	-8.62
3101.627	-15.62
3114.416	-5.62
3127.163	-19.62
3139.869	-17.62
3152.533	-25.62
3165.157	-25.62
3177.739	-30.62
3190.28	-39.62
3202.781	-46.62
3215.241	-47.62
3227.661	-50.62
3240.041	-52.62
3252.382	-52.62
3264.682	-54.62
3276.943	-52.62
3289.165	-59.62
3301.348	-60.62
3313.492	-64.62
3325.597	-73.62
3337.663	-73.62
3349.691	-66.62
3361.681	-74.62
3373.633	-68.62
3385.547	-70.62
3397.424	-70.62
3409.263	-76.62
3421.065	-71.62
3432.829	-71.62
3444.557	-77.62
3456.247	-80.62
3467.902	-82.62
3479.519	-77.62
3491.101	-75.62
3502.646	-78.62
3514.155	-80.62
3525.629	-84.62
3537.067	-85.62
3548.469	-86.62
3559.837	-79.62
3571.169	-86.62
3582.466	-79.62
3593.728	-78.62
3604.956	-88.62
3616.149	-91.62
3627.307	-91.62
3638.432	-90.62
3649.523	-94.62
3660.579	-88.62
3671.602	-90.62
3682.591	-88.62
3693.547	-91.62
3704.47	-96.62
3715.359	-98.62
3726.216	-99.62
3737.039	-98.62
3747.83	-98.62
3758.589	-95.62
3769.315	-98.62
3780.008	-103.62
3790.67	-89.62
3801.299	-99.62
3811.897	-95.62
3822.463	-93.62
3832.998	-89.62
3843.501	-93.62
3853.973	-89.62
3864.414	-91.62
3874.823	-61.62
3885.202	27.38
3895.55	-80.62
3905.868	-93.62
3916.155	-92.62
3926.411	-97.62
3936.638	-98.62
3946.834	-98.62
3957	-97.62
3967.137	-90.62
3977.244	-97.62
3987.321	-91.62
3997.369	-97.62
4007.388	-92.62
4017.377	-93.62
4027.338	-87.62
4037.269	-97.62
4047.172	-92.62
4057.046	-90.62
4066.891	-97.62
4076.708	-94.62
4086.497	-91.62
4096.257	-94.62
4105.989	26.38
4115.694	10.38
4125.37	-93.62
4135.019	-95.62
4142.237	-98.62