File: Data/Raman/2017-08-29 - Alluminum 2/Aug 29 2017 - Aluminum 2/EC 12 3_RamanShift_2.txt
Data from EC 12 3_RamanShift_2.txt Node

Date: Tue Aug 29 12:37:37 IDT 2017
User: aro
Spectrometer: QEPB0276
Trigger mode: 0
Integration Time (sec): 3.000000E1
Scans to average: 1
Electric dark correction enabled: true
Nonlinearity correction enabled: false
Boxcar width: 0
XAxis mode: Raman Shifts
Number of Pixels in Spectrum: 1044
>>>>>Begin Spectral Data<<<<<
160.701	24.25
184.826	460.25
208.845	2067.25
232.758	2198.25
256.565	2319.25
280.267	2452.25
303.865	2621.25
327.359	2694.25
350.751	2794.25
374.04	3011.25
397.228	3035.25
420.315	4297.25
443.302	3079.25
466.189	2865.25
488.978	2746.25
511.668	2243.25
534.261	1719.25
556.756	1607.25
579.155	1563.25
601.459	1552.25
623.667	1480.25
645.781	1801.25
667.8	1415.25
689.726	1336.25
711.56	1302.25
733.301	1297.25
754.951	1416.25
776.509	1360.25
797.977	1443.25
819.355	1407.25
840.644	1331.25
861.844	1250.25
882.955	1194.25
903.979	1141.25
924.916	1139.25
945.766	1129.25
966.529	1097.25
987.208	1062.25
1007.801	1092.25
1028.309	1130.25
1048.734	1135.25
1069.075	1097.25
1089.333	1109.25
1109.509	1072.25
1129.602	1000.25
1149.614	1003.25
1169.545	1015.25
1189.395	1012.25
1209.165	1005.25
1228.856	1017.25
1248.467	993.25
1268	920.25
1287.455	903.25
1306.832	917.25
1326.132	891.25
1345.354	837.25
1364.501	826.25
1383.572	840.25
1402.567	800.25
1421.487	773.25
1440.333	791.25
1459.104	788.25
1477.802	748.25
1496.426	761.25
1514.978	803.25
1533.457	784.25
1551.864	759.25
1570.199	730.25
1588.464	707.25
1606.657	680.25
1624.78	653.25
1642.834	660.25
1660.817	653.25
1678.732	635.25
1696.577	621.25
1714.355	640.25
1732.064	609.25
1749.705	553.25
1767.28	526.25
1784.787	511.25
1802.228	539.25
1819.603	513.25
1836.913	483.25
1854.156	476.25
1871.335	488.25
1888.449	475.25
1905.499	462.25
1922.485	489.25
1939.408	493.25
1956.267	473.25
1973.063	434.25
1989.797	399.25
2006.469	408.25
2023.078	386.25
2039.627	361.25
2056.114	358.25
2072.54	377.25
2088.906	383.25
2105.211	369.25
2121.457	349.25
2137.643	330.25
2153.77	323.25
2169.838	308.25
2185.848	290.25
2201.799	281.25
2217.693	287.25
2233.529	287.25
2249.307	266.25
2265.029	259.25
2280.694	243.25
2296.302	247.25
2311.854	229.25
2327.351	242.25
2342.792	213.25
2358.178	213.25
2373.508	225.25
2388.785	222.25
2404.007	207.25
2419.174	205.25
2434.289	195.25
2449.349	185.25
2464.356	175.25
2479.311	172.25
2494.213	171.25
2509.062	167.25
2523.859	165.25
2538.605	162.25
2553.299	160.25
2567.941	159.25
2582.533	154.25
2597.073	149.25
2611.564	138.25
2626.004	128.25
2640.394	122.25
2654.734	121.25
2669.025	101.25
2683.266	104.25
2697.458	86.25
2711.602	75.25
2725.697	71.25
2739.744	73.25
2753.743	76.25
2767.695	83.25
2781.598	65.25
2795.455	63.25
2809.264	61.25
2823.026	57.25
2836.742	60.25
2850.412	53.25
2864.035	48.25
2877.613	43.25
2891.145	45.25
2904.631	33.25
2918.073	33.25
2931.469	27.25
2944.821	25.25
2958.128	15.25
2971.39	8.25
2984.609	4.25
2997.784	10.25
3010.915	6.25
3024.002	2.25
3037.046	-0.75
3050.048	-9.75
3063.006	-11.75
3075.922	-19.75
3088.795	-20.75
3101.627	-14.75
3114.416	-17.75
3127.163	-21.75
3139.869	-19.75
3152.533	-21.75
3165.157	-33.75
3177.739	-28.75
3190.28	-38.75
3202.781	-42.75
3215.241	-38.75
3227.661	-48.75
3240.041	-43.75
3252.382	-46.75
3264.682	-41.75
3276.943	-50.75
3289.165	-42.75
3301.348	-50.75
3313.492	-53.75
3325.597	-60.75
3337.663	-57.75
3349.691	-60.75
3361.681	-58.75
3373.633	-50.75
3385.547	-55.75
3397.424	-53.75
3409.263	-57.75
3421.065	-60.75
3432.829	-56.75
3444.557	-64.75
3456.247	-69.75
3467.902	-71.75
3479.519	-62.75
3491.101	-68.75
3502.646	-65.75
3514.155	-70.75
3525.629	-76.75
3537.067	-74.75
3548.469	-68.75
3559.837	-65.75
3571.169	-75.75
3582.466	-71.75
3593.728	-73.75
3604.956	-73.75
3616.149	-79.75
3627.307	-78.75
3638.432	-73.75
3649.523	-74.75
3660.579	-75.75
3671.602	-71.75
3682.591	-76.75
3693.547	-69.75
3704.47	-80.75
3715.359	-74.75
3726.216	-79.75
3737.039	-74.75
3747.83	-74.75
3758.589	-76.75
3769.315	-77.75
3780.008	-81.75
3790.67	-76.75
3801.299	-78.75
3811.897	-82.75
3822.463	-81.75
3832.998	-74.75
3843.501	-80.75
3853.973	-74.75
3864.414	-71.75
3874.823	-51.75
3885.202	53.25
3895.55	-65.75
3905.868	-80.75
3916.155	-79.75
3926.411	-78.75
3936.638	-75.75
3946.834	-77.75
3957	-77.75
3967.137	-79.75
3977.244	-82.75
3987.321	-74.75
3997.369	-81.75
4007.388	-73.75
4017.377	-74.75
4027.338	-72.75
4037.269	-79.75
4047.172	-80.75
4057.046	-80.75
4066.891	-84.75
4076.708	-79.75
4086.497	-82.75
4096.257	-81.75
4105.989	30.25
4115.694	22.25
4125.37	-82.75
4135.019	-78.75
4142.237	-84.75