File: Data/Raman/2017-08-29 - Alluminum 2/Aug 29 2017 - Aluminum 2/EC 12 4_RamanShift_1.txt
Data from EC 12 4_RamanShift_1.txt Node

Date: Tue Aug 29 12:39:07 IDT 2017
User: aro
Spectrometer: QEPB0276
Trigger mode: 0
Integration Time (sec): 3.000000E1
Scans to average: 1
Electric dark correction enabled: true
Nonlinearity correction enabled: false
Boxcar width: 0
XAxis mode: Raman Shifts
Number of Pixels in Spectrum: 1044
>>>>>Begin Spectral Data<<<<<
160.701	21.62
184.826	701.62
208.845	3203.62
232.758	3477.62
256.565	3734.62
280.267	3956.62
303.865	4119.62
327.359	4194.62
350.751	4282.62
374.04	4469.62
397.228	4512.62
420.315	5640.62
443.302	4545.62
466.189	4308.62
488.978	4209.62
511.668	3702.62
534.261	3220.62
556.756	3097.62
579.155	3050.62
601.459	2995.62
623.667	2903.62
645.781	3151.62
667.8	2776.62
689.726	2709.62
711.56	2642.62
733.301	2602.62
754.951	2723.62
776.509	2678.62
797.977	2699.62
819.355	2629.62
840.644	2578.62
861.844	2480.62
882.955	2417.62
903.979	2329.62
924.916	2303.62
945.766	2295.62
966.529	2220.62
987.208	2139.62
1007.801	2195.62
1028.309	2237.62
1048.734	2207.62
1069.075	2148.62
1089.333	2139.62
1109.509	2119.62
1129.602	1991.62
1149.614	1984.62
1169.545	2002.62
1189.395	1948.62
1209.165	1929.62
1228.856	1966.62
1248.467	1929.62
1268	1787.62
1287.455	1754.62
1306.832	1760.62
1326.132	1737.62
1345.354	1589.62
1364.501	1588.62
1383.572	1622.62
1402.567	1548.62
1421.487	1481.62
1440.333	1501.62
1459.104	1467.62
1477.802	1388.62
1496.426	1376.62
1514.978	1479.62
1533.457	1465.62
1551.864	1408.62
1570.199	1352.62
1588.464	1324.62
1606.657	1238.62
1624.78	1191.62
1642.834	1193.62
1660.817	1213.62
1678.732	1172.62
1696.577	1110.62
1714.355	1164.62
1732.064	1119.62
1749.705	1027.62
1767.28	939.62
1784.787	926.62
1802.228	961.62
1819.603	951.62
1836.913	891.62
1854.156	864.62
1871.335	865.62
1888.449	849.62
1905.499	831.62
1922.485	864.62
1939.408	889.62
1956.267	872.62
1973.063	793.62
1989.797	740.62
2006.469	719.62
2023.078	684.62
2039.627	638.62
2056.114	620.62
2072.54	642.62
2088.906	664.62
2105.211	647.62
2121.457	618.62
2137.643	591.62
2153.77	584.62
2169.838	528.62
2185.848	516.62
2201.799	505.62
2217.693	494.62
2233.529	497.62
2249.307	465.62
2265.029	456.62
2280.694	424.62
2296.302	417.62
2311.854	392.62
2327.351	402.62
2342.792	369.62
2358.178	361.62
2373.508	371.62
2388.785	355.62
2404.007	352.62
2419.174	341.62
2434.289	335.62
2449.349	309.62
2464.356	294.62
2479.311	301.62
2494.213	291.62
2509.062	288.62
2523.859	286.62
2538.605	271.62
2553.299	266.62
2567.941	276.62
2582.533	265.62
2597.073	247.62
2611.564	236.62
2626.004	223.62
2640.394	210.62
2654.734	197.62
2669.025	179.62
2683.266	174.62
2697.458	144.62
2711.602	143.62
2725.697	120.62
2739.744	120.62
2753.743	127.62
2767.695	131.62
2781.598	119.62
2795.455	119.62
2809.264	105.62
2823.026	114.62
2836.742	101.62
2850.412	85.62
2864.035	88.62
2877.613	80.62
2891.145	68.62
2904.631	54.62
2918.073	48.62
2931.469	46.62
2944.821	39.62
2958.128	25.62
2971.39	16.62
2984.609	20.62
2997.784	20.62
3010.915	13.62
3024.002	8.62
3037.046	-1.38
3050.048	-0.38
3063.006	-7.38
3075.922	-12.38
3088.795	-17.38
3101.627	-15.38
3114.416	-14.38
3127.163	-23.38
3139.869	-20.38
3152.533	-23.38
3165.157	-34.38
3177.739	-38.38
3190.28	-38.38
3202.781	-47.38
3215.241	-52.38
3227.661	-55.38
3240.041	-57.38
3252.382	-53.38
3264.682	-64.38
3276.943	-62.38
3289.165	-65.38
3301.348	-67.38
3313.492	-72.38
3325.597	-77.38
3337.663	-79.38
3349.691	-81.38
3361.681	-78.38
3373.633	-77.38
3385.547	-78.38
3397.424	-73.38
3409.263	-73.38
3421.065	-81.38
3432.829	-82.38
3444.557	-80.38
3456.247	-87.38
3467.902	-91.38
3479.519	-83.38
3491.101	-92.38
3502.646	-87.38
3514.155	-88.38
3525.629	-95.38
3537.067	-97.38
3548.469	-98.38
3559.837	-88.38
3571.169	-98.38
3582.466	-92.38
3593.728	-98.38
3604.956	-97.38
3616.149	-103.38
3627.307	-95.38
3638.432	-98.38
3649.523	-99.38
3660.579	-98.38
3671.602	-99.38
3682.591	-94.38
3693.547	-94.38
3704.47	-103.38
3715.359	-98.38
3726.216	-107.38
3737.039	-106.38
3747.83	-99.38
3758.589	-107.38
3769.315	-103.38
3780.008	-111.38
3790.67	-102.38
3801.299	-104.38
3811.897	-103.38
3822.463	-105.38
3832.998	-98.38
3843.501	-100.38
3853.973	-102.38
3864.414	-99.38
3874.823	-70.38
3885.202	14.62
3895.55	-88.38
3905.868	-103.38
3916.155	-107.38
3926.411	-103.38
3936.638	-106.38
3946.834	-103.38
3957	-101.38
3967.137	-104.38
3977.244	-98.38
3987.321	-97.38
3997.369	-103.38
4007.388	-97.38
4017.377	-101.38
4027.338	-96.38
4037.269	-103.38
4047.172	-98.38
4057.046	-102.38
4066.891	-106.38
4076.708	-102.38
4086.497	-104.38
4096.257	-104.38
4105.989	12.62
4115.694	10.62
4125.37	-104.38
4135.019	-106.38
4142.237	-113.38