File: Data/Raman/2017-08-29 - Alluminum 2/Aug 29 2017 - Aluminum 2/EC 12 5_RamanShift_2.txt
Data from EC 12 5_RamanShift_2.txt Node

Date: Tue Aug 29 12:54:07 IDT 2017
User: aro
Spectrometer: QEPB0276
Trigger mode: 0
Integration Time (sec): 3.000000E1
Scans to average: 1
Electric dark correction enabled: true
Nonlinearity correction enabled: false
Boxcar width: 0
XAxis mode: Raman Shifts
Number of Pixels in Spectrum: 1044
>>>>>Begin Spectral Data<<<<<
160.701	19.62
184.826	497.62
208.845	2281.62
232.758	2486.62
256.565	2702.62
280.267	2854.62
303.865	3038.62
327.359	3100.62
350.751	3165.62
374.04	3343.62
397.228	3381.62
420.315	4457.62
443.302	3442.62
466.189	3231.62
488.978	3167.62
511.668	2725.62
534.261	2281.62
556.756	2178.62
579.155	2147.62
601.459	2143.62
623.667	2070.62
645.781	2335.62
667.8	2025.62
689.726	1948.62
711.56	1890.62
733.301	1906.62
754.951	2025.62
776.509	1989.62
797.977	2060.62
819.355	1990.62
840.644	1971.62
861.844	1902.62
882.955	1831.62
903.979	1778.62
924.916	1787.62
945.766	1781.62
966.529	1742.62
987.208	1697.62
1007.801	1732.62
1028.309	1771.62
1048.734	1758.62
1069.075	1733.62
1089.333	1750.62
1109.509	1712.62
1129.602	1617.62
1149.614	1622.62
1169.545	1656.62
1189.395	1608.62
1209.165	1618.62
1228.856	1655.62
1248.467	1624.62
1268	1515.62
1287.455	1505.62
1306.832	1511.62
1326.132	1487.62
1345.354	1383.62
1364.501	1334.62
1383.572	1411.62
1402.567	1346.62
1421.487	1296.62
1440.333	1303.62
1459.104	1293.62
1477.802	1212.62
1496.426	1223.62
1514.978	1278.62
1533.457	1284.62
1551.864	1236.62
1570.199	1205.62
1588.464	1174.62
1606.657	1116.62
1624.78	1062.62
1642.834	1059.62
1660.817	1081.62
1678.732	1048.62
1696.577	986.62
1714.355	1048.62
1732.064	999.62
1749.705	933.62
1767.28	834.62
1784.787	819.62
1802.228	866.62
1819.603	858.62
1836.913	809.62
1854.156	801.62
1871.335	788.62
1888.449	776.62
1905.499	761.62
1922.485	781.62
1939.408	815.62
1956.267	805.62
1973.063	742.62
1989.797	697.62
2006.469	677.62
2023.078	653.62
2039.627	606.62
2056.114	603.62
2072.54	612.62
2088.906	622.62
2105.211	615.62
2121.457	596.62
2137.643	576.62
2153.77	562.62
2169.838	530.62
2185.848	513.62
2201.799	496.62
2217.693	501.62
2233.529	484.62
2249.307	466.62
2265.029	454.62
2280.694	443.62
2296.302	425.62
2311.854	411.62
2327.351	416.62
2342.792	397.62
2358.178	394.62
2373.508	397.62
2388.785	400.62
2404.007	382.62
2419.174	364.62
2434.289	366.62
2449.349	341.62
2464.356	329.62
2479.311	330.62
2494.213	327.62
2509.062	323.62
2523.859	313.62
2538.605	312.62
2553.299	312.62
2567.941	310.62
2582.533	308.62
2597.073	293.62
2611.564	278.62
2626.004	267.62
2640.394	258.62
2654.734	232.62
2669.025	217.62
2683.266	215.62
2697.458	187.62
2711.602	168.62
2725.697	158.62
2739.744	160.62
2753.743	172.62
2767.695	181.62
2781.598	164.62
2795.455	152.62
2809.264	150.62
2823.026	145.62
2836.742	143.62
2850.412	137.62
2864.035	147.62
2877.613	131.62
2891.145	122.62
2904.631	111.62
2918.073	96.62
2931.469	102.62
2944.821	84.62
2958.128	74.62
2971.39	64.62
2984.609	63.62
2997.784	66.62
3010.915	60.62
3024.002	44.62
3037.046	39.62
3050.048	32.62
3063.006	28.62
3075.922	23.62
3088.795	18.62
3101.627	25.62
3114.416	17.62
3127.163	14.62
3139.869	14.62
3152.533	6.62
3165.157	3.62
3177.739	-2.38
3190.28	-8.38
3202.781	-15.38
3215.241	-23.38
3227.661	-24.38
3240.041	-22.38
3252.382	-25.38
3264.682	-23.38
3276.943	-30.38
3289.165	-31.38
3301.348	-38.38
3313.492	-39.38
3325.597	-39.38
3337.663	-50.38
3349.691	-45.38
3361.681	-46.38
3373.633	-41.38
3385.547	-48.38
3397.424	-42.38
3409.263	-55.38
3421.065	-52.38
3432.829	-52.38
3444.557	-52.38
3456.247	-61.38
3467.902	-64.38
3479.519	-58.38
3491.101	-64.38
3502.646	-63.38
3514.155	-61.38
3525.629	-69.38
3537.067	-68.38
3548.469	-69.38
3559.837	-68.38
3571.169	-73.38
3582.466	-67.38
3593.728	-68.38
3604.956	-73.38
3616.149	-76.38
3627.307	-75.38
3638.432	-74.38
3649.523	-71.38
3660.579	-72.38
3671.602	-73.38
3682.591	-73.38
3693.547	-74.38
3704.47	-77.38
3715.359	-73.38
3726.216	-80.38
3737.039	-76.38
3747.83	-78.38
3758.589	-71.38
3769.315	-77.38
3780.008	-88.38
3790.67	-76.38
3801.299	-74.38
3811.897	-83.38
3822.463	-78.38
3832.998	-77.38
3843.501	-74.38
3853.973	-72.38
3864.414	-75.38
3874.823	-51.38
3885.202	3.62
3895.55	-75.38
3905.868	-85.38
3916.155	-83.38
3926.411	-85.38
3936.638	-87.38
3946.834	-83.38
3957	-82.38
3967.137	-81.38
3977.244	-80.38
3987.321	-74.38
3997.369	-81.38
4007.388	-72.38
4017.377	-78.38
4027.338	-71.38
4037.269	-77.38
4047.172	-73.38
4057.046	-78.38
4066.891	-84.38
4076.708	-79.38
4086.497	-77.38
4096.257	-83.38
4105.989	23.62
4115.694	16.62
4125.37	-81.38
4135.019	-82.38
4142.237	-87.38