File: Data/Raman/2017-08-29 - Alluminum 2/Aug 29 2017 - Aluminum 2/EC 11 4_RamanShift_1.txt
Data from EC 11 4_RamanShift_1.txt Node

Date: Tue Aug 29 12:44:07 IDT 2017
User: aro
Spectrometer: QEPB0276
Trigger mode: 0
Integration Time (sec): 3.000000E1
Scans to average: 1
Electric dark correction enabled: true
Nonlinearity correction enabled: false
Boxcar width: 0
XAxis mode: Raman Shifts
Number of Pixels in Spectrum: 1044
>>>>>Begin Spectral Data<<<<<
160.701	5.75
184.826	1219.75
208.845	5640.75
232.758	6248.75
256.565	6743.75
280.267	7038.75
303.865	7347.75
327.359	7506.75
350.751	7594.75
374.04	7730.75
397.228	7790.75
420.315	9107.75
443.302	7855.75
466.189	7535.75
488.978	7421.75
511.668	6831.75
534.261	6281.75
556.756	6095.75
579.155	6013.75
601.459	5922.75
623.667	5777.75
645.781	6017.75
667.8	5625.75
689.726	5501.75
711.56	5369.75
733.301	5313.75
754.951	5414.75
776.509	5349.75
797.977	5339.75
819.355	5219.75
840.644	5150.75
861.844	5068.75
882.955	4933.75
903.979	4780.75
924.916	4759.75
945.766	4722.75
966.529	4608.75
987.208	4440.75
1007.801	4501.75
1028.309	4586.75
1048.734	4454.75
1069.075	4348.75
1089.333	4368.75
1109.509	4339.75
1129.602	4100.75
1149.614	4067.75
1169.545	4102.75
1189.395	4001.75
1209.165	3949.75
1228.856	3997.75
1248.467	3929.75
1268	3698.75
1287.455	3569.75
1306.832	3601.75
1326.132	3498.75
1345.354	3199.75
1364.501	3163.75
1383.572	3297.75
1402.567	3177.75
1421.487	3022.75
1440.333	2987.75
1459.104	2940.75
1477.802	2790.75
1496.426	2793.75
1514.978	2953.75
1533.457	2926.75
1551.864	2799.75
1570.199	2701.75
1588.464	2630.75
1606.657	2511.75
1624.78	2374.75
1642.834	2331.75
1660.817	2378.75
1678.732	2301.75
1696.577	2204.75
1714.355	2328.75
1732.064	2224.75
1749.705	2060.75
1767.28	1844.75
1784.787	1791.75
1802.228	1938.75
1819.603	1858.75
1836.913	1757.75
1854.156	1700.75
1871.335	1704.75
1888.449	1693.75
1905.499	1644.75
1922.485	1689.75
1939.408	1752.75
1956.267	1697.75
1973.063	1561.75
1989.797	1449.75
2006.469	1417.75
2023.078	1342.75
2039.627	1251.75
2056.114	1208.75
2072.54	1246.75
2088.906	1299.75
2105.211	1261.75
2121.457	1215.75
2137.643	1168.75
2153.77	1131.75
2169.838	1059.75
2185.848	1008.75
2201.799	968.75
2217.693	967.75
2233.529	956.75
2249.307	908.75
2265.029	864.75
2280.694	832.75
2296.302	799.75
2311.854	764.75
2327.351	760.75
2342.792	727.75
2358.178	712.75
2373.508	730.75
2388.785	696.75
2404.007	690.75
2419.174	673.75
2434.289	642.75
2449.349	615.75
2464.356	590.75
2479.311	578.75
2494.213	573.75
2509.062	557.75
2523.859	544.75
2538.605	536.75
2553.299	527.75
2567.941	533.75
2582.533	519.75
2597.073	484.75
2611.564	475.75
2626.004	443.75
2640.394	423.75
2654.734	382.75
2669.025	362.75
2683.266	341.75
2697.458	306.75
2711.602	276.75
2725.697	239.75
2739.744	242.75
2753.743	255.75
2767.695	258.75
2781.598	238.75
2795.455	231.75
2809.264	214.75
2823.026	212.75
2836.742	209.75
2850.412	201.75
2864.035	184.75
2877.613	169.75
2891.145	148.75
2904.631	129.75
2918.073	106.75
2931.469	90.75
2944.821	78.75
2958.128	61.75
2971.39	53.75
2984.609	47.75
2997.784	50.75
3010.915	37.75
3024.002	25.75
3037.046	16.75
3050.048	-1.25
3063.006	0.75
3075.922	-3.25
3088.795	-13.25
3101.627	-12.25
3114.416	-8.25
3127.163	-20.25
3139.869	-25.25
3152.533	-36.25
3165.157	-42.25
3177.739	-52.25
3190.28	-65.25
3202.781	-71.25
3215.241	-69.25
3227.661	-78.25
3240.041	-82.25
3252.382	-90.25
3264.682	-84.25
3276.943	-88.25
3289.165	-90.25
3301.348	-101.25
3313.492	-107.25
3325.597	-109.25
3337.663	-116.25
3349.691	-114.25
3361.681	-116.25
3373.633	-116.25
3385.547	-124.25
3397.424	-121.25
3409.263	-135.25
3421.065	-126.25
3432.829	-132.25
3444.557	-133.25
3456.247	-134.25
3467.902	-145.25
3479.519	-133.25
3491.101	-139.25
3502.646	-137.25
3514.155	-138.25
3525.629	-150.25
3537.067	-146.25
3548.469	-145.25
3559.837	-145.25
3571.169	-153.25
3582.466	-149.25
3593.728	-149.25
3604.956	-151.25
3616.149	-158.25
3627.307	-157.25
3638.432	-158.25
3649.523	-159.25
3660.579	-160.25
3671.602	-158.25
3682.591	-159.25
3693.547	-159.25
3704.47	-171.25
3715.359	-159.25
3726.216	-162.25
3737.039	-165.25
3747.83	-161.25
3758.589	-163.25
3769.315	-162.25
3780.008	-166.25
3790.67	-161.25
3801.299	-160.25
3811.897	-162.25
3822.463	-160.25
3832.998	-158.25
3843.501	-160.25
3853.973	-163.25
3864.414	-158.25
3874.823	-130.25
3885.202	-48.25
3895.55	-151.25
3905.868	-162.25
3916.155	-165.25
3926.411	-166.25
3936.638	-166.25
3946.834	-165.25
3957	-163.25
3967.137	-162.25
3977.244	-161.25
3987.321	-161.25
3997.369	-162.25
4007.388	-160.25
4017.377	-162.25
4027.338	-156.25
4037.269	-158.25
4047.172	-159.25
4057.046	-158.25
4066.891	-166.25
4076.708	-161.25
4086.497	-160.25
4096.257	-167.25
4105.989	-26.25
4115.694	-16.25
4125.37	-161.25
4135.019	-170.25
4142.237	-174.25