File: Data/Raman/2017-08-29 - Alluminum 2/Aug 29 2017 - Aluminum 2/EC 12 3_RamanShift_1.txt
Data from EC 12 3_RamanShift_1.txt Node

Date: Tue Aug 29 12:37:07 IDT 2017
User: aro
Spectrometer: QEPB0276
Trigger mode: 0
Integration Time (sec): 3.000000E1
Scans to average: 1
Electric dark correction enabled: true
Nonlinearity correction enabled: false
Boxcar width: 0
XAxis mode: Raman Shifts
Number of Pixels in Spectrum: 1044
>>>>>Begin Spectral Data<<<<<
160.701	25.75
184.826	504.75
208.845	2302.75
232.758	2458.75
256.565	2599.75
280.267	2741.75
303.865	2895.75
327.359	3000.75
350.751	3098.75
374.04	3269.75
397.228	3324.75
420.315	4590.75
443.302	3373.75
466.189	3148.75
488.978	3033.75
511.668	2520.75
534.261	2019.75
556.756	1857.75
579.155	1827.75
601.459	1796.75
623.667	1717.75
645.781	2054.75
667.8	1667.75
689.726	1578.75
711.56	1522.75
733.301	1512.75
754.951	1643.75
776.509	1580.75
797.977	1653.75
819.355	1597.75
840.644	1521.75
861.844	1454.75
882.955	1378.75
903.979	1317.75
924.916	1322.75
945.766	1318.75
966.529	1294.75
987.208	1218.75
1007.801	1259.75
1028.309	1302.75
1048.734	1303.75
1069.075	1263.75
1089.333	1272.75
1109.509	1234.75
1129.602	1161.75
1149.614	1155.75
1169.545	1168.75
1189.395	1151.75
1209.165	1134.75
1228.856	1164.75
1248.467	1141.75
1268	1061.75
1287.455	1022.75
1306.832	1053.75
1326.132	1021.75
1345.354	957.75
1364.501	926.75
1383.572	942.75
1402.567	907.75
1421.487	880.75
1440.333	888.75
1459.104	880.75
1477.802	843.75
1496.426	841.75
1514.978	877.75
1533.457	874.75
1551.864	841.75
1570.199	805.75
1588.464	797.75
1606.657	763.75
1624.78	720.75
1642.834	739.75
1660.817	736.75
1678.732	712.75
1696.577	695.75
1714.355	699.75
1732.064	669.75
1749.705	617.75
1767.28	566.75
1784.787	562.75
1802.228	581.75
1819.603	564.75
1836.913	536.75
1854.156	522.75
1871.335	531.75
1888.449	514.75
1905.499	513.75
1922.485	519.75
1939.408	532.75
1956.267	514.75
1973.063	471.75
1989.797	437.75
2006.469	438.75
2023.078	416.75
2039.627	392.75
2056.114	385.75
2072.54	393.75
2088.906	403.75
2105.211	391.75
2121.457	375.75
2137.643	365.75
2153.77	351.75
2169.838	329.75
2185.848	317.75
2201.799	308.75
2217.693	301.75
2233.529	296.75
2249.307	292.75
2265.029	274.75
2280.694	263.75
2296.302	261.75
2311.854	248.75
2327.351	249.75
2342.792	226.75
2358.178	226.75
2373.508	233.75
2388.785	225.75
2404.007	216.75
2419.174	211.75
2434.289	208.75
2449.349	197.75
2464.356	179.75
2479.311	179.75
2494.213	184.75
2509.062	171.75
2523.859	167.75
2538.605	165.75
2553.299	167.75
2567.941	170.75
2582.533	154.75
2597.073	149.75
2611.564	145.75
2626.004	134.75
2640.394	136.75
2654.734	122.75
2669.025	104.75
2683.266	104.75
2697.458	87.75
2711.602	84.75
2725.697	68.75
2739.744	71.75
2753.743	71.75
2767.695	79.75
2781.598	65.75
2795.455	64.75
2809.264	57.75
2823.026	60.75
2836.742	62.75
2850.412	53.75
2864.035	53.75
2877.613	40.75
2891.145	39.75
2904.631	25.75
2918.073	23.75
2931.469	28.75
2944.821	15.75
2958.128	5.75
2971.39	5.75
2984.609	8.75
2997.784	10.75
3010.915	-0.25
3024.002	-7.25
3037.046	-12.25
3050.048	-15.25
3063.006	-22.25
3075.922	-19.25
3088.795	-26.25
3101.627	-21.25
3114.416	-20.25
3127.163	-22.25
3139.869	-29.25
3152.533	-35.25
3165.157	-40.25
3177.739	-35.25
3190.28	-45.25
3202.781	-47.25
3215.241	-52.25
3227.661	-50.25
3240.041	-50.25
3252.382	-49.25
3264.682	-51.25
3276.943	-55.25
3289.165	-50.25
3301.348	-64.25
3313.492	-62.25
3325.597	-68.25
3337.663	-70.25
3349.691	-68.25
3361.681	-65.25
3373.633	-64.25
3385.547	-70.25
3397.424	-65.25
3409.263	-71.25
3421.065	-68.25
3432.829	-70.25
3444.557	-68.25
3456.247	-74.25
3467.902	-78.25
3479.519	-70.25
3491.101	-72.25
3502.646	-78.25
3514.155	-76.25
3525.629	-78.25
3537.067	-75.25
3548.469	-74.25
3559.837	-71.25
3571.169	-78.25
3582.466	-74.25
3593.728	-74.25
3604.956	-78.25
3616.149	-81.25
3627.307	-80.25
3638.432	-82.25
3649.523	-87.25
3660.579	-86.25
3671.602	-84.25
3682.591	-81.25
3693.547	-83.25
3704.47	-90.25
3715.359	-83.25
3726.216	-86.25
3737.039	-88.25
3747.83	-89.25
3758.589	-91.25
3769.315	-87.25
3780.008	-90.25
3790.67	-90.25
3801.299	-82.25
3811.897	-87.25
3822.463	-84.25
3832.998	-82.25
3843.501	-84.25
3853.973	-78.25
3864.414	-87.25
3874.823	-52.25
3885.202	51.75
3895.55	-76.25
3905.868	-82.25
3916.155	-83.25
3926.411	-86.25
3936.638	-90.25
3946.834	-82.25
3957	-86.25
3967.137	-81.25
3977.244	-83.25
3987.321	-81.25
3997.369	-89.25
4007.388	-83.25
4017.377	-84.25
4027.338	-82.25
4037.269	-86.25
4047.172	-84.25
4057.046	-88.25
4066.891	-91.25
4076.708	-86.25
4086.497	-88.25
4096.257	-86.25
4105.989	35.75
4115.694	16.75
4125.37	-87.25
4135.019	-88.25
4142.237	-93.25