File: Data/Raman/2017-08-29 - Alluminum 2/Aug 29 2017 - Aluminum 2/EC 11 3_RamanShift_2.txt
Data from EC 11 3_RamanShift_2.txt Node

Date: Tue Aug 29 12:41:37 IDT 2017
User: aro
Spectrometer: QEPB0276
Trigger mode: 0
Integration Time (sec): 3.000000E1
Scans to average: 1
Electric dark correction enabled: true
Nonlinearity correction enabled: false
Boxcar width: 0
XAxis mode: Raman Shifts
Number of Pixels in Spectrum: 1044
>>>>>Begin Spectral Data<<<<<
160.701	16.88
184.826	909.88
208.845	4275.88
232.758	4732.88
256.565	5048.88
280.267	5358.88
303.865	5617.88
327.359	5714.88
350.751	5769.88
374.04	5984.88
397.228	5991.88
420.315	7221.88
443.302	6062.88
466.189	5803.88
488.978	5697.88
511.668	5179.88
534.261	4717.88
556.756	4530.88
579.155	4488.88
601.459	4423.88
623.667	4287.88
645.781	4567.88
667.8	4168.88
689.726	4050.88
711.56	4022.88
733.301	3956.88
754.951	4074.88
776.509	3995.88
797.977	4043.88
819.355	3935.88
840.644	3874.88
861.844	3808.88
882.955	3719.88
903.979	3610.88
924.916	3610.88
945.766	3622.88
966.529	3484.88
987.208	3363.88
1007.801	3440.88
1028.309	3517.88
1048.734	3426.88
1069.075	3323.88
1089.333	3352.88
1109.509	3332.88
1129.602	3153.88
1149.614	3142.88
1169.545	3140.88
1189.395	3067.88
1209.165	3061.88
1228.856	3113.88
1248.467	3049.88
1268	2860.88
1287.455	2786.88
1306.832	2793.88
1326.132	2718.88
1345.354	2513.88
1364.501	2435.88
1383.572	2548.88
1402.567	2452.88
1421.487	2357.88
1440.333	2361.88
1459.104	2322.88
1477.802	2157.88
1496.426	2142.88
1514.978	2277.88
1533.457	2280.88
1551.864	2190.88
1570.199	2135.88
1588.464	2089.88
1606.657	1980.88
1624.78	1850.88
1642.834	1847.88
1660.817	1874.88
1678.732	1790.88
1696.577	1682.88
1714.355	1806.88
1732.064	1734.88
1749.705	1594.88
1767.28	1446.88
1784.787	1396.88
1802.228	1510.88
1819.603	1474.88
1836.913	1389.88
1854.156	1366.88
1871.335	1351.88
1888.449	1323.88
1905.499	1264.88
1922.485	1303.88
1939.408	1372.88
1956.267	1325.88
1973.063	1228.88
1989.797	1166.88
2006.469	1115.88
2023.078	1068.88
2039.627	1020.88
2056.114	978.88
2072.54	996.88
2088.906	1034.88
2105.211	1006.88
2121.457	985.88
2137.643	941.88
2153.77	908.88
2169.838	868.88
2185.848	836.88
2201.799	799.88
2217.693	801.88
2233.529	791.88
2249.307	756.88
2265.029	714.88
2280.694	699.88
2296.302	676.88
2311.854	651.88
2327.351	645.88
2342.792	611.88
2358.178	614.88
2373.508	611.88
2388.785	606.88
2404.007	587.88
2419.174	582.88
2434.289	573.88
2449.349	545.88
2464.356	522.88
2479.311	509.88
2494.213	494.88
2509.062	485.88
2523.859	468.88
2538.605	467.88
2553.299	468.88
2567.941	458.88
2582.533	448.88
2597.073	429.88
2611.564	419.88
2626.004	386.88
2640.394	358.88
2654.734	348.88
2669.025	333.88
2683.266	313.88
2697.458	276.88
2711.602	254.88
2725.697	228.88
2739.744	218.88
2753.743	234.88
2767.695	229.88
2781.598	228.88
2795.455	211.88
2809.264	199.88
2823.026	197.88
2836.742	194.88
2850.412	187.88
2864.035	180.88
2877.613	169.88
2891.145	154.88
2904.631	125.88
2918.073	123.88
2931.469	112.88
2944.821	102.88
2958.128	82.88
2971.39	73.88
2984.609	69.88
2997.784	74.88
3010.915	62.88
3024.002	49.88
3037.046	47.88
3050.048	26.88
3063.006	22.88
3075.922	11.88
3088.795	15.88
3101.627	15.88
3114.416	10.88
3127.163	1.88
3139.869	3.88
3152.533	-9.12
3165.157	-18.12
3177.739	-24.12
3190.28	-29.12
3202.781	-45.12
3215.241	-44.12
3227.661	-50.12
3240.041	-54.12
3252.382	-61.12
3264.682	-60.12
3276.943	-59.12
3289.165	-64.12
3301.348	-70.12
3313.492	-76.12
3325.597	-83.12
3337.663	-88.12
3349.691	-81.12
3361.681	-84.12
3373.633	-81.12
3385.547	-81.12
3397.424	-88.12
3409.263	-88.12
3421.065	-94.12
3432.829	-96.12
3444.557	-90.12
3456.247	-97.12
3467.902	-102.12
3479.519	-97.12
3491.101	-100.12
3502.646	-103.12
3514.155	-103.12
3525.629	-110.12
3537.067	-106.12
3548.469	-109.12
3559.837	-108.12
3571.169	-113.12
3582.466	-112.12
3593.728	-109.12
3604.956	-119.12
3616.149	-123.12
3627.307	-118.12
3638.432	-123.12
3649.523	-125.12
3660.579	-123.12
3671.602	-123.12
3682.591	-117.12
3693.547	-121.12
3704.47	-123.12
3715.359	-121.12
3726.216	-129.12
3737.039	-124.12
3747.83	-129.12
3758.589	-120.12
3769.315	-127.12
3780.008	-131.12
3790.67	-121.12
3801.299	-128.12
3811.897	-124.12
3822.463	-127.12
3832.998	-123.12
3843.501	-125.12
3853.973	-117.12
3864.414	-120.12
3874.823	-98.12
3885.202	-12.12
3895.55	-118.12
3905.868	-127.12
3916.155	-131.12
3926.411	-129.12
3936.638	-128.12
3946.834	-125.12
3957	-126.12
3967.137	-126.12
3977.244	-123.12
3987.321	-126.12
3997.369	-125.12
4007.388	-117.12
4017.377	-121.12
4027.338	-117.12
4037.269	-123.12
4047.172	-122.12
4057.046	-123.12
4066.891	-123.12
4076.708	-123.12
4086.497	-126.12
4096.257	-129.12
4105.989	6.88
4115.694	-7.12
4125.37	-128.12
4135.019	-130.12
4142.237	-132.12