File: Data/Raman/2017-08-29 - Alluminum 2/Aug 29 2017 - Aluminum 2/EC 110 3_RamanShift_1.txt
Data from EC 110 3_RamanShift_1.txt Node

Date: Tue Aug 29 12:33:07 IDT 2017
User: aro
Spectrometer: QEPB0276
Trigger mode: 0
Integration Time (sec): 3.000000E1
Scans to average: 1
Electric dark correction enabled: true
Nonlinearity correction enabled: false
Boxcar width: 0
XAxis mode: Raman Shifts
Number of Pixels in Spectrum: 1044
>>>>>Begin Spectral Data<<<<<
160.701	25.62
184.826	478.62
208.845	2068.62
232.758	2195.62
256.565	2330.62
280.267	2454.62
303.865	2615.62
327.359	2750.62
350.751	2797.62
374.04	3075.62
397.228	3124.62
420.315	4712.62
443.302	3199.62
466.189	2935.62
488.978	2806.62
511.668	2192.62
534.261	1628.62
556.756	1473.62
579.155	1445.62
601.459	1415.62
623.667	1348.62
645.781	1765.62
667.8	1267.62
689.726	1190.62
711.56	1166.62
733.301	1156.62
754.951	1313.62
776.509	1262.62
797.977	1347.62
819.355	1276.62
840.644	1205.62
861.844	1094.62
882.955	1052.62
903.979	1000.62
924.916	986.62
945.766	992.62
966.529	959.62
987.208	914.62
1007.801	958.62
1028.309	992.62
1048.734	1005.62
1069.075	998.62
1089.333	980.62
1109.509	937.62
1129.602	888.62
1149.614	896.62
1169.545	916.62
1189.395	891.62
1209.165	908.62
1228.856	934.62
1248.467	900.62
1268	836.62
1287.455	799.62
1306.832	827.62
1326.132	815.62
1345.354	775.62
1364.501	756.62
1383.572	747.62
1402.567	736.62
1421.487	697.62
1440.333	718.62
1459.104	731.62
1477.802	693.62
1496.426	715.62
1514.978	741.62
1533.457	734.62
1551.864	692.62
1570.199	663.62
1588.464	646.62
1606.657	623.62
1624.78	611.62
1642.834	612.62
1660.817	639.62
1678.732	620.62
1696.577	609.62
1714.355	607.62
1732.064	574.62
1749.705	537.62
1767.28	495.62
1784.787	491.62
1802.228	505.62
1819.603	495.62
1836.913	460.62
1854.156	454.62
1871.335	452.62
1888.449	467.62
1905.499	454.62
1922.485	460.62
1939.408	485.62
1956.267	461.62
1973.063	421.62
1989.797	382.62
2006.469	370.62
2023.078	362.62
2039.627	351.62
2056.114	346.62
2072.54	357.62
2088.906	369.62
2105.211	356.62
2121.457	337.62
2137.643	323.62
2153.77	315.62
2169.838	297.62
2185.848	288.62
2201.799	273.62
2217.693	275.62
2233.529	275.62
2249.307	263.62
2265.029	248.62
2280.694	238.62
2296.302	230.62
2311.854	212.62
2327.351	217.62
2342.792	206.62
2358.178	201.62
2373.508	203.62
2388.785	199.62
2404.007	194.62
2419.174	192.62
2434.289	182.62
2449.349	170.62
2464.356	160.62
2479.311	164.62
2494.213	167.62
2509.062	160.62
2523.859	160.62
2538.605	157.62
2553.299	155.62
2567.941	152.62
2582.533	149.62
2597.073	139.62
2611.564	140.62
2626.004	121.62
2640.394	121.62
2654.734	113.62
2669.025	98.62
2683.266	92.62
2697.458	81.62
2711.602	76.62
2725.697	65.62
2739.744	72.62
2753.743	66.62
2767.695	458.62
2781.598	61.62
2795.455	61.62
2809.264	51.62
2823.026	55.62
2836.742	56.62
2850.412	46.62
2864.035	41.62
2877.613	39.62
2891.145	42.62
2904.631	22.62
2918.073	23.62
2931.469	20.62
2944.821	12.62
2958.128	9.62
2971.39	9.62
2984.609	2.62
2997.784	7.62
3010.915	5.62
3024.002	-2.38
3037.046	-10.38
3050.048	-16.38
3063.006	-25.38
3075.922	-21.38
3088.795	-21.38
3101.627	-27.38
3114.416	-21.38
3127.163	-22.38
3139.869	-25.38
3152.533	-25.38
3165.157	-32.38
3177.739	-36.38
3190.28	-39.38
3202.781	-44.38
3215.241	-43.38
3227.661	-49.38
3240.041	-43.38
3252.382	-48.38
3264.682	-48.38
3276.943	-52.38
3289.165	-50.38
3301.348	-53.38
3313.492	-59.38
3325.597	-62.38
3337.663	-67.38
3349.691	-63.38
3361.681	-56.38
3373.633	-57.38
3385.547	-63.38
3397.424	-60.38
3409.263	-66.38
3421.065	-62.38
3432.829	-58.38
3444.557	-61.38
3456.247	-71.38
3467.902	-71.38
3479.519	-64.38
3491.101	-65.38
3502.646	-66.38
3514.155	-66.38
3525.629	-74.38
3537.067	-73.38
3548.469	-70.38
3559.837	-68.38
3571.169	-75.38
3582.466	-74.38
3593.728	-74.38
3604.956	-74.38
3616.149	-86.38
3627.307	-80.38
3638.432	-78.38
3649.523	-83.38
3660.579	-83.38
3671.602	-75.38
3682.591	-76.38
3693.547	-77.38
3704.47	-78.38
3715.359	-82.38
3726.216	-89.38
3737.039	-83.38
3747.83	-84.38
3758.589	-75.38
3769.315	-82.38
3780.008	-85.38
3790.67	-80.38
3801.299	-83.38
3811.897	-84.38
3822.463	-78.38
3832.998	-75.38
3843.501	-77.38
3853.973	-80.38
3864.414	-79.38
3874.823	-50.38
3885.202	51.62
3895.55	-65.38
3905.868	-82.38
3916.155	-84.38
3926.411	-82.38
3936.638	-88.38
3946.834	-83.38
3957	-82.38
3967.137	-78.38
3977.244	-86.38
3987.321	-82.38
3997.369	-83.38
4007.388	-80.38
4017.377	-78.38
4027.338	-79.38
4037.269	-83.38
4047.172	-79.38
4057.046	-78.38
4066.891	-77.38
4076.708	-80.38
4086.497	-81.38
4096.257	-81.38
4105.989	39.62
4115.694	31.62
4125.37	-79.38
4135.019	-86.38
4142.237	-87.38