File: Data/Raman/2017-08-29 - Alluminum 2/Aug 29 2017 - Aluminum 2/EC 11 5_RamanShift_2.txt
Data from EC 11 5_RamanShift_2.txt Node

Date: Tue Aug 29 12:56:07 IDT 2017
User: aro
Spectrometer: QEPB0276
Trigger mode: 0
Integration Time (sec): 3.000000E1
Scans to average: 1
Electric dark correction enabled: true
Nonlinearity correction enabled: false
Boxcar width: 0
XAxis mode: Raman Shifts
Number of Pixels in Spectrum: 1044
>>>>>Begin Spectral Data<<<<<
160.701	19.88
184.826	1100.88
208.845	4971.88
232.758	5417.88
256.565	5752.88
280.267	5983.88
303.865	6253.88
327.359	6402.88
350.751	6467.88
374.04	6615.88
397.228	6648.88
420.315	7924.88
443.302	6692.88
466.189	6438.88
488.978	6296.88
511.668	5759.88
534.261	5217.88
556.756	5017.88
579.155	4951.88
601.459	4861.88
623.667	4735.88
645.781	5018.88
667.8	4604.88
689.726	4463.88
711.56	4347.88
733.301	4298.88
754.951	4410.88
776.509	4347.88
797.977	4366.88
819.355	4245.88
840.644	4142.88
861.844	4108.88
882.955	4012.88
903.979	3863.88
924.916	3855.88
945.766	3870.88
966.529	3765.88
987.208	3610.88
1007.801	3695.88
1028.309	3763.88
1048.734	3657.88
1069.075	3576.88
1089.333	3591.88
1109.509	3566.88
1129.602	3399.88
1149.614	3341.88
1169.545	3400.88
1189.395	3331.88
1209.165	3305.88
1228.856	3340.88
1248.467	3311.88
1268	3139.88
1287.455	3060.88
1306.832	3116.88
1326.132	3070.88
1345.354	2906.88
1364.501	2942.88
1383.572	3009.88
1402.567	2794.88
1421.487	2713.88
1440.333	2750.88
1459.104	2784.88
1477.802	2741.88
1496.426	2818.88
1514.978	2995.88
1533.457	2949.88
1551.864	2750.88
1570.199	2613.88
1588.464	2519.88
1606.657	2402.88
1624.78	2322.88
1642.834	2366.88
1660.817	2496.88
1678.732	2518.88
1696.577	2486.88
1714.355	2560.88
1732.064	2399.88
1749.705	2206.88
1767.28	2070.88
1784.787	2090.88
1802.228	2247.88
1819.603	2097.88
1836.913	1923.88
1854.156	1910.88
1871.335	1924.88
1888.449	1960.88
1905.499	1998.88
1922.485	2068.88
1939.408	2136.88
1956.267	2020.88
1973.063	1794.88
1989.797	1646.88
2006.469	1596.88
2023.078	1540.88
2039.627	1460.88
2056.114	1460.88
2072.54	1519.88
2088.906	1561.88
2105.211	1506.88
2121.457	1437.88
2137.643	1353.88
2153.77	1288.88
2169.838	1198.88
2185.848	1138.88
2201.799	1087.88
2217.693	1067.88
2233.529	1068.88
2249.307	990.88
2265.029	964.88
2280.694	915.88
2296.302	864.88
2311.854	799.88
2327.351	778.88
2342.792	734.88
2358.178	707.88
2373.508	717.88
2388.785	696.88
2404.007	667.88
2419.174	646.88
2434.289	619.88
2449.349	608.88
2464.356	569.88
2479.311	563.88
2494.213	562.88
2509.062	575.88
2523.859	557.88
2538.605	571.88
2553.299	578.88
2567.941	556.88
2582.533	538.88
2597.073	516.88
2611.564	486.88
2626.004	438.88
2640.394	412.88
2654.734	386.88
2669.025	356.88
2683.266	331.88
2697.458	307.88
2711.602	281.88
2725.697	275.88
2739.744	284.88
2753.743	297.88
2767.695	288.88
2781.598	269.88
2795.455	247.88
2809.264	249.88
2823.026	248.88
2836.742	222.88
2850.412	218.88
2864.035	201.88
2877.613	186.88
2891.145	164.88
2904.631	152.88
2918.073	125.88
2931.469	110.88
2944.821	106.88
2958.128	95.88
2971.39	84.88
2984.609	74.88
2997.784	79.88
3010.915	58.88
3024.002	44.88
3037.046	22.88
3050.048	17.88
3063.006	8.88
3075.922	12.88
3088.795	1.88
3101.627	8.88
3114.416	-3.12
3127.163	-7.12
3139.869	-8.12
3152.533	-21.12
3165.157	-31.12
3177.739	-36.12
3190.28	-49.12
3202.781	-56.12
3215.241	-67.12
3227.661	-67.12
3240.041	-73.12
3252.382	-73.12
3264.682	-72.12
3276.943	-84.12
3289.165	-81.12
3301.348	-92.12
3313.492	-90.12
3325.597	-103.12
3337.663	-108.12
3349.691	-105.12
3361.681	-107.12
3373.633	-113.12
3385.547	-110.12
3397.424	-105.12
3409.263	-116.12
3421.065	-116.12
3432.829	-119.12
3444.557	-115.12
3456.247	-124.12
3467.902	-128.12
3479.519	-121.12
3491.101	-122.12
3502.646	-129.12
3514.155	-124.12
3525.629	-131.12
3537.067	-134.12
3548.469	-140.12
3559.837	-134.12
3571.169	-137.12
3582.466	-138.12
3593.728	-138.12
3604.956	-138.12
3616.149	-149.12
3627.307	-146.12
3638.432	-146.12
3649.523	-149.12
3660.579	-143.12
3671.602	-142.12
3682.591	-145.12
3693.547	-145.12
3704.47	-150.12
3715.359	-147.12
3726.216	-153.12
3737.039	-154.12
3747.83	-144.12
3758.589	-146.12
3769.315	-151.12
3780.008	-161.12
3790.67	-151.12
3801.299	-153.12
3811.897	-153.12
3822.463	-149.12
3832.998	-144.12
3843.501	-151.12
3853.973	-151.12
3864.414	-153.12
3874.823	-123.12
3885.202	-30.12
3895.55	-136.12
3905.868	-154.12
3916.155	-154.12
3926.411	-153.12
3936.638	-159.12
3946.834	-154.12
3957	-155.12
3967.137	-148.12
3977.244	-148.12
3987.321	-148.12
3997.369	-151.12
4007.388	-143.12
4017.377	-146.12
4027.338	-143.12
4037.269	-151.12
4047.172	-146.12
4057.046	-143.12
4066.891	-149.12
4076.708	-150.12
4086.497	-151.12
4096.257	-157.12
4105.989	-4.12
4115.694	-3.12
4125.37	-151.12
4135.019	-157.12
4142.237	-162.12