File: Data/Raman/2017-08-29 - Alluminum 2/Aug 29 2017 - Aluminum 2/EC 11 2_RamanShift_2.txt
Data from EC 11 2_RamanShift_2.txt Node

Date: Tue Aug 29 12:18:37 IDT 2017
User: aro
Spectrometer: QEPB0276
Trigger mode: 0
Integration Time (sec): 3.000000E1
Scans to average: 1
Electric dark correction enabled: true
Nonlinearity correction enabled: false
Boxcar width: 0
XAxis mode: Raman Shifts
Number of Pixels in Spectrum: 1044
>>>>>Begin Spectral Data<<<<<
160.701	16.62
184.826	1245.62
208.845	5858.62
232.758	6509.62
256.565	7035.62
280.267	7374.62
303.865	7721.62
327.359	7909.62
350.751	7996.62
374.04	8235.62
397.228	8309.62
420.315	9879.62
443.302	8380.62
466.189	8049.62
488.978	7929.62
511.668	7235.62
534.261	6592.62
556.756	6421.62
579.155	6315.62
601.459	6222.62
623.667	6071.62
645.781	6396.62
667.8	5915.62
689.726	5790.62
711.56	5674.62
733.301	5597.62
754.951	5744.62
776.509	5663.62
797.977	5735.62
819.355	5558.62
840.644	5497.62
861.844	5412.62
882.955	5269.62
903.979	5118.62
924.916	5073.62
945.766	5065.62
966.529	4912.62
987.208	4757.62
1007.801	4836.62
1028.309	4910.62
1048.734	4816.62
1069.075	4690.62
1089.333	4729.62
1109.509	4709.62
1129.602	4422.62
1149.614	4399.62
1169.545	4402.62
1189.395	4321.62
1209.165	4267.62
1228.856	4348.62
1248.467	4303.62
1268	3994.62
1287.455	3904.62
1306.832	3918.62
1326.132	3787.62
1345.354	3474.62
1364.501	3417.62
1383.572	3584.62
1402.567	3466.62
1421.487	3307.62
1440.333	3296.62
1459.104	3212.62
1477.802	3003.62
1496.426	2975.62
1514.978	3171.62
1533.457	3172.62
1551.864	3068.62
1570.199	2971.62
1588.464	2924.62
1606.657	2750.62
1624.78	2593.62
1642.834	2573.62
1660.817	2590.62
1678.732	2471.62
1696.577	2336.62
1714.355	2504.62
1732.064	2441.62
1749.705	2216.62
1767.28	2022.62
1784.787	1912.62
1802.228	2083.62
1819.603	2065.62
1836.913	1947.62
1854.156	1887.62
1871.335	1874.62
1888.449	1808.62
1905.499	1748.62
1922.485	1771.62
1939.408	1864.62
1956.267	1838.62
1973.063	1697.62
1989.797	1604.62
2006.469	1565.62
2023.078	1502.62
2039.627	1385.62
2056.114	1363.62
2072.54	1378.62
2088.906	1401.62
2105.211	1380.62
2121.457	1340.62
2137.643	1301.62
2153.77	1269.62
2169.838	1215.62
2185.848	1143.62
2201.799	1119.62
2217.693	1112.62
2233.529	1097.62
2249.307	1048.62
2265.029	1013.62
2280.694	988.62
2296.302	953.62
2311.854	912.62
2327.351	914.62
2342.792	875.62
2358.178	864.62
2373.508	865.62
2388.785	863.62
2404.007	839.62
2419.174	827.62
2434.289	812.62
2449.349	764.62
2464.356	735.62
2479.311	709.62
2494.213	703.62
2509.062	680.62
2523.859	648.62
2538.605	647.62
2553.299	649.62
2567.941	637.62
2582.533	622.62
2597.073	586.62
2611.564	566.62
2626.004	551.62
2640.394	522.62
2654.734	483.62
2669.025	445.62
2683.266	429.62
2697.458	387.62
2711.602	355.62
2725.697	316.62
2739.744	307.62
2753.743	315.62
2767.695	313.62
2781.598	300.62
2795.455	287.62
2809.264	282.62
2823.026	266.62
2836.742	264.62
2850.412	252.62
2864.035	247.62
2877.613	232.62
2891.145	222.62
2904.631	182.62
2918.073	172.62
2931.469	162.62
2944.821	138.62
2958.128	117.62
2971.39	95.62
2984.609	88.62
2997.784	90.62
3010.915	81.62
3024.002	65.62
3037.046	54.62
3050.048	35.62
3063.006	30.62
3075.922	33.62
3088.795	17.62
3101.627	12.62
3114.416	12.62
3127.163	5.62
3139.869	-2.38
3152.533	-15.38
3165.157	-31.38
3177.739	-31.38
3190.28	-47.38
3202.781	-56.38
3215.241	-62.38
3227.661	-79.38
3240.041	-79.38
3252.382	-78.38
3264.682	-81.38
3276.943	-88.38
3289.165	-86.38
3301.348	-94.38
3313.492	-104.38
3325.597	-106.38
3337.663	-113.38
3349.691	-107.38
3361.681	-110.38
3373.633	-113.38
3385.547	-115.38
3397.424	-112.38
3409.263	-124.38
3421.065	-130.38
3432.829	-128.38
3444.557	-131.38
3456.247	-136.38
3467.902	-143.38
3479.519	-137.38
3491.101	-139.38
3502.646	-140.38
3514.155	-143.38
3525.629	-150.38
3537.067	-144.38
3548.469	-151.38
3559.837	-147.38
3571.169	-145.38
3582.466	-148.38
3593.728	-146.38
3604.956	-152.38
3616.149	-155.38
3627.307	-164.38
3638.432	-158.38
3649.523	-162.38
3660.579	-160.38
3671.602	-162.38
3682.591	-162.38
3693.547	-163.38
3704.47	-166.38
3715.359	-162.38
3726.216	-167.38
3737.039	-168.38
3747.83	-164.38
3758.589	-163.38
3769.315	-164.38
3780.008	-168.38
3790.67	-164.38
3801.299	-163.38
3811.897	-167.38
3822.463	-165.38
3832.998	-164.38
3843.501	-166.38
3853.973	-163.38
3864.414	-165.38
3874.823	-127.38
3885.202	-26.38
3895.55	-158.38
3905.868	-172.38
3916.155	-171.38
3926.411	-172.38
3936.638	-175.38
3946.834	-168.38
3957	-164.38
3967.137	-167.38
3977.244	-167.38
3987.321	-167.38
3997.369	-169.38
4007.388	-158.38
4017.377	-160.38
4027.338	-160.38
4037.269	-165.38
4047.172	-169.38
4057.046	-166.38
4066.891	-169.38
4076.708	-163.38
4086.497	-162.38
4096.257	-174.38
4105.989	-11.38
4115.694	-7.38
4125.37	-167.38
4135.019	-174.38
4142.237	-178.38