File: Data/Raman/2017-08-29 - Alluminum 2/Aug 29 2017 - Aluminum 2/EC 11 1_RamanShift_1.txt
Data from EC 11 1_RamanShift_1.txt Node

Date: Tue Aug 29 12:20:07 IDT 2017
User: aro
Spectrometer: QEPB0276
Trigger mode: 0
Integration Time (sec): 3.000000E1
Scans to average: 1
Electric dark correction enabled: true
Nonlinearity correction enabled: false
Boxcar width: 0
XAxis mode: Raman Shifts
Number of Pixels in Spectrum: 1044
>>>>>Begin Spectral Data<<<<<
160.701	3.75
184.826	1467.75
208.845	6981.75
232.758	7728.75
256.565	8297.75
280.267	8672.75
303.865	9002.75
327.359	9092.75
350.751	9139.75
374.04	9232.75
397.228	9253.75
420.315	10366.75
443.302	9283.75
466.189	9006.75
488.978	8859.75
511.668	8335.75
534.261	7835.75
556.756	7627.75
579.155	7543.75
601.459	7422.75
623.667	7208.75
645.781	7356.75
667.8	7036.75
689.726	6880.75
711.56	6708.75
733.301	6642.75
754.951	6666.75
776.509	6599.75
797.977	6591.75
819.355	6406.75
840.644	6347.75
861.844	6285.75
882.955	6135.75
903.979	5919.75
924.916	5846.75
945.766	5874.75
966.529	5691.75
987.208	5484.75
1007.801	5570.75
1028.309	5671.75
1048.734	5498.75
1069.075	5292.75
1089.333	5349.75
1109.509	5294.75
1129.602	5038.75
1149.614	4984.75
1169.545	5008.75
1189.395	4880.75
1209.165	4814.75
1228.856	4861.75
1248.467	4798.75
1268	4507.75
1287.455	4399.75
1306.832	4393.75
1326.132	4272.75
1345.354	3913.75
1364.501	3839.75
1383.572	4018.75
1402.567	3808.75
1421.487	3645.75
1440.333	3677.75
1459.104	3600.75
1477.802	3370.75
1496.426	3332.75
1514.978	3491.75
1533.457	3531.75
1551.864	3351.75
1570.199	3250.75
1588.464	3188.75
1606.657	3036.75
1624.78	2833.75
1642.834	2845.75
1660.817	2853.75
1678.732	2731.75
1696.577	2550.75
1714.355	2697.75
1732.064	2629.75
1749.705	2419.75
1767.28	2167.75
1784.787	2106.75
1802.228	2213.75
1819.603	2185.75
1836.913	2062.75
1854.156	2006.75
1871.335	1990.75
1888.449	1952.75
1905.499	1885.75
1922.485	1918.75
1939.408	1991.75
1956.267	1946.75
1973.063	1781.75
1989.797	1680.75
2006.469	1609.75
2023.078	1559.75
2039.627	1472.75
2056.114	1407.75
2072.54	1419.75
2088.906	1464.75
2105.211	1426.75
2121.457	1376.75
2137.643	1332.75
2153.77	1289.75
2169.838	1213.75
2185.848	1162.75
2201.799	1126.75
2217.693	1119.75
2233.529	1099.75
2249.307	1052.75
2265.029	995.75
2280.694	957.75
2296.302	925.75
2311.854	880.75
2327.351	861.75
2342.792	821.75
2358.178	830.75
2373.508	831.75
2388.785	838.75
2404.007	809.75
2419.174	779.75
2434.289	757.75
2449.349	737.75
2464.356	685.75
2479.311	664.75
2494.213	665.75
2509.062	643.75
2523.859	616.75
2538.605	616.75
2553.299	624.75
2567.941	606.75
2582.533	574.75
2597.073	559.75
2611.564	528.75
2626.004	507.75
2640.394	467.75
2654.734	435.75
2669.025	402.75
2683.266	378.75
2697.458	336.75
2711.602	310.75
2725.697	270.75
2739.744	268.75
2753.743	268.75
2767.695	280.75
2781.598	251.75
2795.455	260.75
2809.264	233.75
2823.026	231.75
2836.742	227.75
2850.412	203.75
2864.035	206.75
2877.613	191.75
2891.145	167.75
2904.631	154.75
2918.073	133.75
2931.469	108.75
2944.821	93.75
2958.128	72.75
2971.39	65.75
2984.609	55.75
2997.784	59.75
3010.915	47.75
3024.002	33.75
3037.046	14.75
3050.048	1.75
3063.006	-7.25
3075.922	-7.25
3088.795	-13.25
3101.627	-15.25
3114.416	-20.25
3127.163	-27.25
3139.869	-32.25
3152.533	-42.25
3165.157	-58.25
3177.739	-63.25
3190.28	-77.25
3202.781	-83.25
3215.241	-93.25
3227.661	-95.25
3240.041	-97.25
3252.382	-109.25
3264.682	-106.25
3276.943	-111.25
3289.165	-116.25
3301.348	-121.25
3313.492	-126.25
3325.597	-133.25
3337.663	-140.25
3349.691	-137.25
3361.681	-137.25
3373.633	-135.25
3385.547	-142.25
3397.424	-142.25
3409.263	-148.25
3421.065	-150.25
3432.829	-152.25
3444.557	-152.25
3456.247	-160.25
3467.902	-164.25
3479.519	-161.25
3491.101	-162.25
3502.646	-165.25
3514.155	-165.25
3525.629	-176.25
3537.067	-173.25
3548.469	-169.25
3559.837	-167.25
3571.169	-176.25
3582.466	-175.25
3593.728	-174.25
3604.956	-179.25
3616.149	-187.25
3627.307	-185.25
3638.432	-181.25
3649.523	-185.25
3660.579	-185.25
3671.602	-182.25
3682.591	-184.25
3693.547	-180.25
3704.47	-187.25
3715.359	-181.25
3726.216	-186.25
3737.039	-184.25
3747.83	-190.25
3758.589	-188.25
3769.315	-182.25
3780.008	-191.25
3790.67	-188.25
3801.299	-187.25
3811.897	-189.25
3822.463	-191.25
3832.998	-190.25
3843.501	-189.25
3853.973	-183.25
3864.414	-191.25
3874.823	-158.25
3885.202	-74.25
3895.55	-174.25
3905.868	-194.25
3916.155	-189.25
3926.411	-193.25
3936.638	-192.25
3946.834	-190.25
3957	-191.25
3967.137	-186.25
3977.244	-182.25
3987.321	-184.25
3997.369	-188.25
4007.388	-184.25
4017.377	-184.25
4027.338	-183.25
4037.269	-183.25
4047.172	-184.25
4057.046	-188.25
4066.891	-191.25
4076.708	-189.25
4086.497	-188.25
4096.257	-197.25
4105.989	-38.25
4115.694	-23.25
4125.37	-188.25
4135.019	-194.25
4142.237	-200.25