File: Data/Raman/2017-08-29 - Alluminum 2/Aug 29 2017 - Aluminum 2/EC 11 4_RamanShift_2.txt
Data from EC 11 4_RamanShift_2.txt Node

Date: Tue Aug 29 12:44:37 IDT 2017
User: aro
Spectrometer: QEPB0276
Trigger mode: 0
Integration Time (sec): 3.000000E1
Scans to average: 1
Electric dark correction enabled: true
Nonlinearity correction enabled: false
Boxcar width: 0
XAxis mode: Raman Shifts
Number of Pixels in Spectrum: 1044
>>>>>Begin Spectral Data<<<<<
160.701	17.5
184.826	940.5
208.845	4351.5
232.758	4816.5
256.565	5199.5
280.267	5459.5
303.865	5732.5
327.359	5836.5
350.751	5925.5
374.04	6143.5
397.228	6146.5
420.315	7443.5
443.302	6244.5
466.189	5982.5
488.978	5867.5
511.668	5290.5
534.261	4750.5
556.756	4579.5
579.155	4571.5
601.459	4501.5
623.667	4354.5
645.781	4629.5
667.8	4248.5
689.726	4138.5
711.56	4044.5
733.301	4003.5
754.951	4144.5
776.509	4062.5
797.977	4145.5
819.355	4031.5
840.644	3945.5
861.844	3865.5
882.955	3747.5
903.979	3644.5
924.916	3629.5
945.766	3640.5
966.529	3546.5
987.208	3432.5
1007.801	3495.5
1028.309	3553.5
1048.734	3460.5
1069.075	3371.5
1089.333	3393.5
1109.509	3365.5
1129.602	3184.5
1149.614	3169.5
1169.545	3184.5
1189.395	3127.5
1209.165	3087.5
1228.856	3156.5
1248.467	3086.5
1268	2901.5
1287.455	2814.5
1306.832	2819.5
1326.132	2733.5
1345.354	2508.5
1364.501	2494.5
1383.572	2611.5
1402.567	2498.5
1421.487	2392.5
1440.333	2394.5
1459.104	2347.5
1477.802	2202.5
1496.426	2229.5
1514.978	2343.5
1533.457	2362.5
1551.864	2265.5
1570.199	2174.5
1588.464	2107.5
1606.657	2007.5
1624.78	1928.5
1642.834	1894.5
1660.817	1927.5
1678.732	1863.5
1696.577	1786.5
1714.355	1869.5
1732.064	1823.5
1749.705	1660.5
1767.28	1524.5
1784.787	1466.5
1802.228	1579.5
1819.603	1529.5
1836.913	1417.5
1854.156	1392.5
1871.335	1408.5
1888.449	1381.5
1905.499	1355.5
1922.485	1382.5
1939.408	1435.5
1956.267	1401.5
1973.063	1298.5
1989.797	1193.5
2006.469	1180.5
2023.078	1115.5
2039.627	1050.5
2056.114	1021.5
2072.54	1056.5
2088.906	1071.5
2105.211	1057.5
2121.457	1025.5
2137.643	991.5
2153.77	938.5
2169.838	906.5
2185.848	849.5
2201.799	828.5
2217.693	813.5
2233.529	823.5
2249.307	781.5
2265.029	745.5
2280.694	724.5
2296.302	684.5
2311.854	659.5
2327.351	649.5
2342.792	617.5
2358.178	617.5
2373.508	628.5
2388.785	620.5
2404.007	592.5
2419.174	596.5
2434.289	567.5
2449.349	549.5
2464.356	510.5
2479.311	495.5
2494.213	500.5
2509.062	489.5
2523.859	480.5
2538.605	466.5
2553.299	480.5
2567.941	466.5
2582.533	463.5
2597.073	425.5
2611.564	407.5
2626.004	399.5
2640.394	372.5
2654.734	354.5
2669.025	324.5
2683.266	306.5
2697.458	274.5
2711.602	253.5
2725.697	230.5
2739.744	224.5
2753.743	225.5
2767.695	241.5
2781.598	222.5
2795.455	209.5
2809.264	202.5
2823.026	199.5
2836.742	189.5
2850.412	177.5
2864.035	177.5
2877.613	165.5
2891.145	154.5
2904.631	124.5
2918.073	119.5
2931.469	105.5
2944.821	96.5
2958.128	75.5
2971.39	68.5
2984.609	62.5
2997.784	71.5
3010.915	60.5
3024.002	32.5
3037.046	33.5
3050.048	26.5
3063.006	13.5
3075.922	15.5
3088.795	2.5
3101.627	5.5
3114.416	8.5
3127.163	-4.5
3139.869	-7.5
3152.533	-20.5
3165.157	-22.5
3177.739	-29.5
3190.28	-37.5
3202.781	-53.5
3215.241	-56.5
3227.661	-61.5
3240.041	-58.5
3252.382	-59.5
3264.682	-56.5
3276.943	-58.5
3289.165	-66.5
3301.348	-76.5
3313.492	-74.5
3325.597	-85.5
3337.663	-91.5
3349.691	-88.5
3361.681	-82.5
3373.633	-82.5
3385.547	-89.5
3397.424	-88.5
3409.263	-96.5
3421.065	-98.5
3432.829	-97.5
3444.557	-96.5
3456.247	-106.5
3467.902	-106.5
3479.519	-104.5
3491.101	-109.5
3502.646	-108.5
3514.155	-113.5
3525.629	-116.5
3537.067	-119.5
3548.469	-120.5
3559.837	-113.5
3571.169	-118.5
3582.466	-113.5
3593.728	-114.5
3604.956	-117.5
3616.149	-127.5
3627.307	-121.5
3638.432	-123.5
3649.523	-121.5
3660.579	-127.5
3671.602	-125.5
3682.591	-121.5
3693.547	-124.5
3704.47	-131.5
3715.359	-131.5
3726.216	-131.5
3737.039	-133.5
3747.83	-132.5
3758.589	-128.5
3769.315	-130.5
3780.008	-139.5
3790.67	-130.5
3801.299	-129.5
3811.897	-133.5
3822.463	-132.5
3832.998	-128.5
3843.501	-126.5
3853.973	-128.5
3864.414	-129.5
3874.823	-96.5
3885.202	-21.5
3895.55	-117.5
3905.868	-133.5
3916.155	-129.5
3926.411	-129.5
3936.638	-135.5
3946.834	-129.5
3957	-128.5
3967.137	-135.5
3977.244	-130.5
3987.321	-124.5
3997.369	-128.5
4007.388	-125.5
4017.377	-124.5
4027.338	-121.5
4037.269	-126.5
4047.172	-127.5
4057.046	-128.5
4066.891	-129.5
4076.708	-127.5
4086.497	-128.5
4096.257	-133.5
4105.989	-0.5
4115.694	0.5
4125.37	-132.5
4135.019	-136.5
4142.237	-139.5