File: Data/Raman/2017-08-29 - Alluminum 2/Aug 29 2017 - Aluminum 2/EC 110 2_RamanShift_3.txt
Data from EC 110 2_RamanShift_3.txt Node

Date: Tue Aug 29 12:11:07 IDT 2017
User: aro
Spectrometer: QEPB0276
Trigger mode: 0
Integration Time (sec): 3.000000E1
Scans to average: 1
Electric dark correction enabled: true
Nonlinearity correction enabled: false
Boxcar width: 0
XAxis mode: Raman Shifts
Number of Pixels in Spectrum: 1044
>>>>>Begin Spectral Data<<<<<
160.701	38.88
184.826	571.88
208.845	2571.88
232.758	2791.88
256.565	2973.88
280.267	3160.88
303.865	3372.88
327.359	3462.88
350.751	3575.88
374.04	3833.88
397.228	3865.88
420.315	5454.88
443.302	3942.88
466.189	3673.88
488.978	3545.88
511.668	2887.88
534.261	2282.88
556.756	2122.88
579.155	2097.88
601.459	2018.88
623.667	1964.88
645.781	2365.88
667.8	1873.88
689.726	1772.88
711.56	1712.88
733.301	1714.88
754.951	1878.88
776.509	1815.88
797.977	1912.88
819.355	1806.88
840.644	1755.88
861.844	1643.88
882.955	1553.88
903.979	1495.88
924.916	1495.88
945.766	1494.88
966.529	1469.88
987.208	1408.88
1007.801	1432.88
1028.309	1482.88
1048.734	1460.88
1069.075	1458.88
1089.333	1451.88
1109.509	1399.88
1129.602	1319.88
1149.614	1311.88
1169.545	1367.88
1189.395	1331.88
1209.165	1317.88
1228.856	1346.88
1248.467	1309.88
1268	1209.88
1287.455	1186.88
1306.832	1214.88
1326.132	1176.88
1345.354	1106.88
1364.501	1095.88
1383.572	1078.88
1402.567	1041.88
1421.487	1019.88
1440.333	1023.88
1459.104	1024.88
1477.802	974.88
1496.426	970.88
1514.978	1021.88
1533.457	995.88
1551.864	961.88
1570.199	916.88
1588.464	920.88
1606.657	881.88
1624.78	825.88
1642.834	840.88
1660.817	838.88
1678.732	817.88
1696.577	796.88
1714.355	797.88
1732.064	772.88
1749.705	718.88
1767.28	666.88
1784.787	637.88
1802.228	665.88
1819.603	639.88
1836.913	618.88
1854.156	597.88
1871.335	607.88
1888.449	597.88
1905.499	577.88
1922.485	590.88
1939.408	601.88
1956.267	582.88
1973.063	532.88
1989.797	491.88
2006.469	491.88
2023.078	481.88
2039.627	455.88
2056.114	430.88
2072.54	449.88
2088.906	468.88
2105.211	446.88
2121.457	431.88
2137.643	413.88
2153.77	389.88
2169.838	373.88
2185.848	354.88
2201.799	340.88
2217.693	342.88
2233.529	348.88
2249.307	324.88
2265.029	312.88
2280.694	294.88
2296.302	286.88
2311.854	277.88
2327.351	276.88
2342.792	255.88
2358.178	255.88
2373.508	260.88
2388.785	254.88
2404.007	243.88
2419.174	237.88
2434.289	237.88
2449.349	223.88
2464.356	205.88
2479.311	209.88
2494.213	200.88
2509.062	191.88
2523.859	179.88
2538.605	196.88
2553.299	175.88
2567.941	184.88
2582.533	175.88
2597.073	163.88
2611.564	157.88
2626.004	144.88
2640.394	135.88
2654.734	127.88
2669.025	117.88
2683.266	116.88
2697.458	100.88
2711.602	87.88
2725.697	72.88
2739.744	79.88
2753.743	87.88
2767.695	81.88
2781.598	67.88
2795.455	64.88
2809.264	61.88
2823.026	59.88
2836.742	62.88
2850.412	57.88
2864.035	52.88
2877.613	42.88
2891.145	36.88
2904.631	28.88
2918.073	10.88
2931.469	14.88
2944.821	11.88
2958.128	7.88
2971.39	-1.12
2984.609	-2.12
2997.784	1.88
3010.915	-5.12
3024.002	-12.12
3037.046	-17.12
3050.048	-26.12
3063.006	-27.12
3075.922	-23.12
3088.795	-30.12
3101.627	-27.12
3114.416	-29.12
3127.163	-38.12
3139.869	-35.12
3152.533	-45.12
3165.157	-49.12
3177.739	-50.12
3190.28	-52.12
3202.781	-55.12
3215.241	-66.12
3227.661	-64.12
3240.041	-63.12
3252.382	-63.12
3264.682	-64.12
3276.943	-65.12
3289.165	-69.12
3301.348	-70.12
3313.492	-75.12
3325.597	-82.12
3337.663	-79.12
3349.691	-81.12
3361.681	-79.12
3373.633	-76.12
3385.547	-81.12
3397.424	-77.12
3409.263	-78.12
3421.065	-84.12
3432.829	-79.12
3444.557	-80.12
3456.247	-91.12
3467.902	-90.12
3479.519	-79.12
3491.101	-91.12
3502.646	-86.12
3514.155	-88.12
3525.629	-90.12
3537.067	-95.12
3548.469	-94.12
3559.837	-86.12
3571.169	-95.12
3582.466	-90.12
3593.728	-90.12
3604.956	-91.12
3616.149	-100.12
3627.307	-99.12
3638.432	-99.12
3649.523	-103.12
3660.579	-101.12
3671.602	-101.12
3682.591	-101.12
3693.547	-98.12
3704.47	-101.12
3715.359	-104.12
3726.216	-101.12
3737.039	-105.12
3747.83	-101.12
3758.589	-99.12
3769.315	-100.12
3780.008	-108.12
3790.67	-98.12
3801.299	-100.12
3811.897	-103.12
3822.463	-103.12
3832.998	-101.12
3843.501	-97.12
3853.973	-105.12
3864.414	-105.12
3874.823	-60.12
3885.202	69.88
3895.55	-83.12
3905.868	-100.12
3916.155	-101.12
3926.411	-101.12
3936.638	-103.12
3946.834	-102.12
3957	-98.12
3967.137	-100.12
3977.244	-107.12
3987.321	-100.12
3997.369	-101.12
4007.388	-98.12
4017.377	-100.12
4027.338	-98.12
4037.269	-105.12
4047.172	-102.12
4057.046	-98.12
4066.891	-104.12
4076.708	-105.12
4086.497	-103.12
4096.257	-102.12
4105.989	43.88
4115.694	28.88
4125.37	-101.12
4135.019	-104.12
4142.237	-108.12