File: Data/Raman/2017-08-29 - Alluminum 2/Aug 29 2017 - Aluminum 2/EC 110 3_RamanShift_2.txt
Data from EC 110 3_RamanShift_2.txt Node

Date: Tue Aug 29 12:33:37 IDT 2017
User: aro
Spectrometer: QEPB0276
Trigger mode: 0
Integration Time (sec): 3.000000E1
Scans to average: 1
Electric dark correction enabled: true
Nonlinearity correction enabled: false
Boxcar width: 0
XAxis mode: Raman Shifts
Number of Pixels in Spectrum: 1044
>>>>>Begin Spectral Data<<<<<
160.701	26.88
184.826	461.88
208.845	1990.88
232.758	2108.88
256.565	2202.88
280.267	2390.88
303.865	2521.88
327.359	2611.88
350.751	2717.88
374.04	2995.88
397.228	3013.88
420.315	4587.88
443.302	3082.88
466.189	2812.88
488.978	2715.88
511.668	2112.88
534.261	1552.88
556.756	1365.88
579.155	1355.88
601.459	1322.88
623.667	1254.88
645.781	1662.88
667.8	1184.88
689.726	1087.88
711.56	1059.88
733.301	1085.88
754.951	1248.88
776.509	1180.88
797.977	1252.88
819.355	1214.88
840.644	1143.88
861.844	1025.88
882.955	955.88
903.979	925.88
924.916	913.88
945.766	914.88
966.529	906.88
987.208	873.88
1007.801	892.88
1028.309	926.88
1048.734	931.88
1069.075	927.88
1089.333	929.88
1109.509	884.88
1129.602	818.88
1149.614	830.88
1169.545	857.88
1189.395	838.88
1209.165	845.88
1228.856	867.88
1248.467	838.88
1268	758.88
1287.455	747.88
1306.832	766.88
1326.132	759.88
1345.354	708.88
1364.501	703.88
1383.572	708.88
1402.567	661.88
1421.487	646.88
1440.333	673.88
1459.104	686.88
1477.802	644.88
1496.426	663.88
1514.978	700.88
1533.457	675.88
1551.864	651.88
1570.199	627.88
1588.464	602.88
1606.657	597.88
1624.78	574.88
1642.834	570.88
1660.817	594.88
1678.732	581.88
1696.577	577.88
1714.355	570.88
1732.064	538.88
1749.705	499.88
1767.28	469.88
1784.787	466.88
1802.228	470.88
1819.603	462.88
1836.913	444.88
1854.156	430.88
1871.335	430.88
1888.449	430.88
1905.499	431.88
1922.485	442.88
1939.408	442.88
1956.267	436.88
1973.063	397.88
1989.797	364.88
2006.469	362.88
2023.078	348.88
2039.627	321.88
2056.114	334.88
2072.54	330.88
2088.906	346.88
2105.211	332.88
2121.457	323.88
2137.643	307.88
2153.77	297.88
2169.838	274.88
2185.848	268.88
2201.799	259.88
2217.693	263.88
2233.529	262.88
2249.307	238.88
2265.029	237.88
2280.694	229.88
2296.302	215.88
2311.854	207.88
2327.351	211.88
2342.792	191.88
2358.178	193.88
2373.508	195.88
2388.785	190.88
2404.007	189.88
2419.174	178.88
2434.289	175.88
2449.349	164.88
2464.356	149.88
2479.311	157.88
2494.213	149.88
2509.062	162.88
2523.859	146.88
2538.605	146.88
2553.299	144.88
2567.941	147.88
2582.533	139.88
2597.073	139.88
2611.564	118.88
2626.004	117.88
2640.394	110.88
2654.734	104.88
2669.025	99.88
2683.266	82.88
2697.458	82.88
2711.602	69.88
2725.697	57.88
2739.744	63.88
2753.743	63.88
2767.695	71.88
2781.598	53.88
2795.455	55.88
2809.264	54.88
2823.026	47.88
2836.742	50.88
2850.412	44.88
2864.035	41.88
2877.613	36.88
2891.145	28.88
2904.631	22.88
2918.073	20.88
2931.469	19.88
2944.821	11.88
2958.128	4.88
2971.39	0.88
2984.609	-0.12
2997.784	2.88
3010.915	-6.12
3024.002	-9.12
3037.046	-14.12
3050.048	-17.12
3063.006	-25.12
3075.922	-16.12
3088.795	-19.12
3101.627	-21.12
3114.416	-19.12
3127.163	-17.12
3139.869	-26.12
3152.533	-28.12
3165.157	-34.12
3177.739	-32.12
3190.28	-40.12
3202.781	-44.12
3215.241	-49.12
3227.661	-49.12
3240.041	-47.12
3252.382	-50.12
3264.682	-49.12
3276.943	-48.12
3289.165	-50.12
3301.348	-51.12
3313.492	-58.12
3325.597	-63.12
3337.663	-58.12
3349.691	-60.12
3361.681	-60.12
3373.633	-59.12
3385.547	-59.12
3397.424	-59.12
3409.263	-69.12
3421.065	-66.12
3432.829	-65.12
3444.557	-67.12
3456.247	-70.12
3467.902	-74.12
3479.519	-66.12
3491.101	-73.12
3502.646	-70.12
3514.155	-72.12
3525.629	-75.12
3537.067	-69.12
3548.469	-78.12
3559.837	-62.12
3571.169	-75.12
3582.466	-75.12
3593.728	-72.12
3604.956	-73.12
3616.149	-82.12
3627.307	-81.12
3638.432	-80.12
3649.523	-87.12
3660.579	-83.12
3671.602	-83.12
3682.591	-76.12
3693.547	-79.12
3704.47	-84.12
3715.359	-79.12
3726.216	-86.12
3737.039	-81.12
3747.83	-85.12
3758.589	-81.12
3769.315	-80.12
3780.008	-89.12
3790.67	-80.12
3801.299	-83.12
3811.897	-82.12
3822.463	-77.12
3832.998	-73.12
3843.501	-81.12
3853.973	-75.12
3864.414	-82.12
3874.823	-44.12
3885.202	51.88
3895.55	-63.12
3905.868	-84.12
3916.155	-82.12
3926.411	-85.12
3936.638	-86.12
3946.834	-83.12
3957	-83.12
3967.137	-79.12
3977.244	-87.12
3987.321	-82.12
3997.369	-83.12
4007.388	-78.12
4017.377	-77.12
4027.338	-75.12
4037.269	-86.12
4047.172	-81.12
4057.046	-77.12
4066.891	-82.12
4076.708	-79.12
4086.497	-81.12
4096.257	-84.12
4105.989	39.88
4115.694	27.88
4125.37	-77.12
4135.019	-86.12
4142.237	-87.12