File: Data/Raman/2017-08-29 - Alluminum 2/Aug 29 2017 - Aluminum 2/EC 110 5_RamanShift_2.txt
Data from EC 110 5_RamanShift_2.txt Node

Date: Tue Aug 29 12:51:37 IDT 2017
User: aro
Spectrometer: QEPB0276
Trigger mode: 0
Integration Time (sec): 3.000000E1
Scans to average: 1
Electric dark correction enabled: true
Nonlinearity correction enabled: false
Boxcar width: 0
XAxis mode: Raman Shifts
Number of Pixels in Spectrum: 1044
>>>>>Begin Spectral Data<<<<<
160.701	33.5
184.826	418.5
208.845	1847.5
232.758	1974.5
256.565	2134.5
280.267	2296.5
303.865	2455.5
327.359	2523.5
350.751	2617.5
374.04	2835.5
397.228	2888.5
420.315	4186.5
443.302	2961.5
466.189	2698.5
488.978	2609.5
511.668	2085.5
534.261	1549.5
556.756	1408.5
579.155	1377.5
601.459	1359.5
623.667	1319.5
645.781	1654.5
667.8	1256.5
689.726	1176.5
711.56	1133.5
733.301	1147.5
754.951	1299.5
776.509	1241.5
797.977	1327.5
819.355	1288.5
840.644	1237.5
861.844	1134.5
882.955	1082.5
903.979	1050.5
924.916	1041.5
945.766	1046.5
966.529	1019.5
987.208	991.5
1007.801	1031.5
1028.309	1063.5
1048.734	1065.5
1069.075	1054.5
1089.333	1045.5
1109.509	1021.5
1129.602	961.5
1149.614	956.5
1169.545	986.5
1189.395	969.5
1209.165	965.5
1228.856	1004.5
1248.467	959.5
1268	904.5
1287.455	881.5
1306.832	902.5
1326.132	878.5
1345.354	816.5
1364.501	830.5
1383.572	842.5
1402.567	826.5
1421.487	788.5
1440.333	782.5
1459.104	789.5
1477.802	756.5
1496.426	772.5
1514.978	829.5
1533.457	815.5
1551.864	789.5
1570.199	772.5
1588.464	744.5
1606.657	700.5
1624.78	687.5
1642.834	678.5
1660.817	695.5
1678.732	682.5
1696.577	673.5
1714.355	698.5
1732.064	663.5
1749.705	600.5
1767.28	576.5
1784.787	546.5
1802.228	596.5
1819.603	568.5
1836.913	544.5
1854.156	536.5
1871.335	525.5
1888.449	539.5
1905.499	514.5
1922.485	535.5
1939.408	564.5
1956.267	555.5
1973.063	501.5
1989.797	470.5
2006.469	455.5
2023.078	445.5
2039.627	411.5
2056.114	409.5
2072.54	437.5
2088.906	449.5
2105.211	442.5
2121.457	424.5
2137.643	403.5
2153.77	400.5
2169.838	370.5
2185.848	356.5
2201.799	354.5
2217.693	346.5
2233.529	342.5
2249.307	327.5
2265.029	318.5
2280.694	313.5
2296.302	298.5
2311.854	285.5
2327.351	309.5
2342.792	269.5
2358.178	271.5
2373.508	270.5
2388.785	272.5
2404.007	263.5
2419.174	265.5
2434.289	257.5
2449.349	237.5
2464.356	223.5
2479.311	228.5
2494.213	225.5
2509.062	215.5
2523.859	216.5
2538.605	214.5
2553.299	222.5
2567.941	212.5
2582.533	208.5
2597.073	204.5
2611.564	204.5
2626.004	184.5
2640.394	185.5
2654.734	164.5
2669.025	159.5
2683.266	145.5
2697.458	132.5
2711.602	118.5
2725.697	110.5
2739.744	111.5
2753.743	121.5
2767.695	123.5
2781.598	109.5
2795.455	101.5
2809.264	105.5
2823.026	103.5
2836.742	99.5
2850.412	88.5
2864.035	89.5
2877.613	79.5
2891.145	78.5
2904.631	68.5
2918.073	59.5
2931.469	53.5
2944.821	50.5
2958.128	37.5
2971.39	36.5
2984.609	30.5
2997.784	38.5
3010.915	36.5
3024.002	15.5
3037.046	22.5
3050.048	9.5
3063.006	9.5
3075.922	9.5
3088.795	3.5
3101.627	7.5
3114.416	8.5
3127.163	2.5
3139.869	5.5
3152.533	-9.5
3165.157	-11.5
3177.739	-8.5
3190.28	-18.5
3202.781	-23.5
3215.241	-21.5
3227.661	-31.5
3240.041	-33.5
3252.382	-31.5
3264.682	-36.5
3276.943	-35.5
3289.165	-33.5
3301.348	-40.5
3313.492	-45.5
3325.597	-48.5
3337.663	-51.5
3349.691	-51.5
3361.681	-45.5
3373.633	-46.5
3385.547	-50.5
3397.424	-48.5
3409.263	-49.5
3421.065	-52.5
3432.829	-55.5
3444.557	-51.5
3456.247	-58.5
3467.902	-61.5
3479.519	-55.5
3491.101	-60.5
3502.646	-54.5
3514.155	-60.5
3525.629	-64.5
3537.067	-63.5
3548.469	-69.5
3559.837	-60.5
3571.169	-68.5
3582.466	-68.5
3593.728	-60.5
3604.956	-67.5
3616.149	-71.5
3627.307	-66.5
3638.432	-70.5
3649.523	-71.5
3660.579	-67.5
3671.602	-70.5
3682.591	-71.5
3693.547	-66.5
3704.47	-70.5
3715.359	-66.5
3726.216	-77.5
3737.039	-77.5
3747.83	-76.5
3758.589	-73.5
3769.315	-71.5
3780.008	-79.5
3790.67	-72.5
3801.299	-75.5
3811.897	-76.5
3822.463	-76.5
3832.998	-72.5
3843.501	-66.5
3853.973	-73.5
3864.414	-72.5
3874.823	-43.5
3885.202	41.5
3895.55	-62.5
3905.868	-74.5
3916.155	-71.5
3926.411	-72.5
3936.638	-79.5
3946.834	-74.5
3957	-74.5
3967.137	-71.5
3977.244	-74.5
3987.321	-72.5
3997.369	-76.5
4007.388	-70.5
4017.377	-69.5
4027.338	-68.5
4037.269	-69.5
4047.172	-72.5
4057.046	-71.5
4066.891	-76.5
4076.708	-77.5
4086.497	-81.5
4096.257	-74.5
4105.989	42.5
4115.694	28.5
4125.37	-80.5
4135.019	-79.5
4142.237	-85.5