File: Data/Raman/2017-08-29 - Alluminum 2/Aug 29 2017 - Aluminum 2/EC 11 3_RamanShift_3.txt
Data from EC 11 3_RamanShift_3.txt Node

Date: Tue Aug 29 12:42:07 IDT 2017
User: aro
Spectrometer: QEPB0276
Trigger mode: 0
Integration Time (sec): 3.000000E1
Scans to average: 1
Electric dark correction enabled: true
Nonlinearity correction enabled: false
Boxcar width: 0
XAxis mode: Raman Shifts
Number of Pixels in Spectrum: 1044
>>>>>Begin Spectral Data<<<<<
160.701	21.5
184.826	818.5
208.845	3851.5
232.758	4265.5
256.565	4589.5
280.267	4830.5
303.865	5023.5
327.359	5153.5
350.751	5264.5
374.04	5413.5
397.228	5477.5
420.315	6658.5
443.302	5530.5
466.189	5289.5
488.978	5173.5
511.668	4668.5
534.261	4191.5
556.756	4022.5
579.155	3954.5
601.459	3934.5
623.667	3796.5
645.781	4105.5
667.8	3703.5
689.726	3603.5
711.56	3532.5
733.301	3535.5
754.951	3643.5
776.509	3594.5
797.977	3643.5
819.355	3547.5
840.644	3473.5
861.844	3418.5
882.955	3333.5
903.979	3220.5
924.916	3226.5
945.766	3223.5
966.529	3133.5
987.208	3029.5
1007.801	3084.5
1028.309	3146.5
1048.734	3085.5
1069.075	2991.5
1089.333	3048.5
1109.509	2999.5
1129.602	2843.5
1149.614	2813.5
1169.545	2860.5
1189.395	2781.5
1209.165	2781.5
1228.856	2811.5
1248.467	2779.5
1268	2571.5
1287.455	2540.5
1306.832	2554.5
1326.132	2460.5
1345.354	2262.5
1364.501	2218.5
1383.572	2319.5
1402.567	2256.5
1421.487	2142.5
1440.333	2147.5
1459.104	2100.5
1477.802	1989.5
1496.426	1964.5
1514.978	2079.5
1533.457	2080.5
1551.864	2015.5
1570.199	1952.5
1588.464	1907.5
1606.657	1798.5
1624.78	1717.5
1642.834	1719.5
1660.817	1722.5
1678.732	1630.5
1696.577	1575.5
1714.355	1666.5
1732.064	1607.5
1749.705	1477.5
1767.28	1345.5
1784.787	1297.5
1802.228	1387.5
1819.603	1366.5
1836.913	1288.5
1854.156	1256.5
1871.335	1241.5
1888.449	1217.5
1905.499	1182.5
1922.485	1222.5
1939.408	1267.5
1956.267	1241.5
1973.063	1147.5
1989.797	1064.5
2006.469	1045.5
2023.078	1001.5
2039.627	938.5
2056.114	908.5
2072.54	928.5
2088.906	961.5
2105.211	938.5
2121.457	924.5
2137.643	881.5
2153.77	854.5
2169.838	819.5
2185.848	785.5
2201.799	747.5
2217.693	748.5
2233.529	736.5
2249.307	714.5
2265.029	686.5
2280.694	654.5
2296.302	636.5
2311.854	618.5
2327.351	611.5
2342.792	567.5
2358.178	579.5
2373.508	587.5
2388.785	564.5
2404.007	557.5
2419.174	558.5
2434.289	537.5
2449.349	510.5
2464.356	495.5
2479.311	485.5
2494.213	473.5
2509.062	460.5
2523.859	464.5
2538.605	446.5
2553.299	455.5
2567.941	438.5
2582.533	424.5
2597.073	413.5
2611.564	407.5
2626.004	378.5
2640.394	359.5
2654.734	337.5
2669.025	317.5
2683.266	292.5
2697.458	272.5
2711.602	246.5
2725.697	220.5
2739.744	218.5
2753.743	228.5
2767.695	231.5
2781.598	223.5
2795.455	206.5
2809.264	192.5
2823.026	193.5
2836.742	196.5
2850.412	184.5
2864.035	176.5
2877.613	161.5
2891.145	151.5
2904.631	129.5
2918.073	116.5
2931.469	116.5
2944.821	99.5
2958.128	85.5
2971.39	73.5
2984.609	70.5
2997.784	66.5
3010.915	61.5
3024.002	49.5
3037.046	42.5
3050.048	36.5
3063.006	26.5
3075.922	17.5
3088.795	15.5
3101.627	18.5
3114.416	13.5
3127.163	10.5
3139.869	8.5
3152.533	-9.5
3165.157	-9.5
3177.739	-19.5
3190.28	-26.5
3202.781	-33.5
3215.241	-38.5
3227.661	-47.5
3240.041	-45.5
3252.382	-51.5
3264.682	-52.5
3276.943	-53.5
3289.165	-53.5
3301.348	-61.5
3313.492	-64.5
3325.597	-70.5
3337.663	-74.5
3349.691	-76.5
3361.681	-72.5
3373.633	-76.5
3385.547	-74.5
3397.424	-76.5
3409.263	-82.5
3421.065	-86.5
3432.829	-85.5
3444.557	-82.5
3456.247	-83.5
3467.902	-93.5
3479.519	-85.5
3491.101	-93.5
3502.646	-96.5
3514.155	-91.5
3525.629	-104.5
3537.067	-102.5
3548.469	-105.5
3559.837	-100.5
3571.169	-107.5
3582.466	-105.5
3593.728	-100.5
3604.956	-104.5
3616.149	-113.5
3627.307	-114.5
3638.432	-107.5
3649.523	-113.5
3660.579	-105.5
3671.602	-108.5
3682.591	-112.5
3693.547	-108.5
3704.47	-112.5
3715.359	-107.5
3726.216	-115.5
3737.039	-112.5
3747.83	-115.5
3758.589	-115.5
3769.315	-117.5
3780.008	-121.5
3790.67	-116.5
3801.299	-112.5
3811.897	-120.5
3822.463	-120.5
3832.998	-110.5
3843.501	-115.5
3853.973	-113.5
3864.414	-114.5
3874.823	-88.5
3885.202	-6.5
3895.55	-101.5
3905.868	-116.5
3916.155	-115.5
3926.411	-116.5
3936.638	-118.5
3946.834	-112.5
3957	-115.5
3967.137	-118.5
3977.244	-113.5
3987.321	-115.5
3997.369	-116.5
4007.388	-114.5
4017.377	-108.5
4027.338	-109.5
4037.269	-114.5
4047.172	-114.5
4057.046	-109.5
4066.891	-116.5
4076.708	-115.5
4086.497	-115.5
4096.257	-119.5
4105.989	13.5
4115.694	2.5
4125.37	-123.5
4135.019	-120.5
4142.237	-126.5