File: Data/Raman/2017-08-29 - Alluminum 2/Aug 29 2017 - Aluminum 2/EC 12 3_RamanShift_3.txt
Data from EC 12 3_RamanShift_3.txt Node

Date: Tue Aug 29 12:38:07 IDT 2017
User: aro
Spectrometer: QEPB0276
Trigger mode: 0
Integration Time (sec): 3.000000E1
Scans to average: 1
Electric dark correction enabled: true
Nonlinearity correction enabled: false
Boxcar width: 0
XAxis mode: Raman Shifts
Number of Pixels in Spectrum: 1044
>>>>>Begin Spectral Data<<<<<
160.701	29.88
184.826	458.88
208.845	2002.88
232.758	2121.88
256.565	2236.88
280.267	2381.88
303.865	2513.88
327.359	2613.88
350.751	2687.88
374.04	2911.88
397.228	2948.88
420.315	4201.88
443.302	2991.88
466.189	2742.88
488.978	2666.88
511.668	2152.88
534.261	1661.88
556.756	1526.88
579.155	1489.88
601.459	1450.88
623.667	1399.88
645.781	1726.88
667.8	1341.88
689.726	1263.88
711.56	1219.88
733.301	1235.88
754.951	1367.88
776.509	1301.88
797.977	1376.88
819.355	1321.88
840.644	1262.88
861.844	1174.88
882.955	1112.88
903.979	1080.88
924.916	1074.88
945.766	1061.88
966.529	1051.88
987.208	1006.88
1007.801	1039.88
1028.309	1053.88
1048.734	1075.88
1069.075	1053.88
1089.333	1032.88
1109.509	1010.88
1129.602	945.88
1149.614	951.88
1169.545	992.88
1189.395	964.88
1209.165	957.88
1228.856	968.88
1248.467	955.88
1268	887.88
1287.455	860.88
1306.832	872.88
1326.132	854.88
1345.354	807.88
1364.501	794.88
1383.572	800.88
1402.567	750.88
1421.487	751.88
1440.333	741.88
1459.104	759.88
1477.802	724.88
1496.426	721.88
1514.978	759.88
1533.457	753.88
1551.864	727.88
1570.199	699.88
1588.464	676.88
1606.657	645.88
1624.78	631.88
1642.834	628.88
1660.817	650.88
1678.732	620.88
1696.577	597.88
1714.355	624.88
1732.064	587.88
1749.705	552.88
1767.28	505.88
1784.787	496.88
1802.228	507.88
1819.603	496.88
1836.913	464.88
1854.156	460.88
1871.335	475.88
1888.449	465.88
1905.499	446.88
1922.485	463.88
1939.408	472.88
1956.267	465.88
1973.063	427.88
1989.797	391.88
2006.469	391.88
2023.078	372.88
2039.627	355.88
2056.114	346.88
2072.54	355.88
2088.906	359.88
2105.211	360.88
2121.457	336.88
2137.643	323.88
2153.77	311.88
2169.838	297.88
2185.848	282.88
2201.799	279.88
2217.693	273.88
2233.529	281.88
2249.307	264.88
2265.029	256.88
2280.694	238.88
2296.302	234.88
2311.854	218.88
2327.351	230.88
2342.792	216.88
2358.178	204.88
2373.508	215.88
2388.785	211.88
2404.007	202.88
2419.174	198.88
2434.289	193.88
2449.349	175.88
2464.356	177.88
2479.311	170.88
2494.213	169.88
2509.062	169.88
2523.859	161.88
2538.605	164.88
2553.299	155.88
2567.941	161.88
2582.533	150.88
2597.073	145.88
2611.564	142.88
2626.004	129.88
2640.394	128.88
2654.734	116.88
2669.025	104.88
2683.266	101.88
2697.458	82.88
2711.602	80.88
2725.697	65.88
2739.744	67.88
2753.743	73.88
2767.695	76.88
2781.598	65.88
2795.455	63.88
2809.264	60.88
2823.026	66.88
2836.742	62.88
2850.412	57.88
2864.035	56.88
2877.613	45.88
2891.145	40.88
2904.631	34.88
2918.073	30.88
2931.469	30.88
2944.821	24.88
2958.128	17.88
2971.39	15.88
2984.609	3.88
2997.784	17.88
3010.915	4.88
3024.002	-2.12
3037.046	-3.12
3050.048	-3.12
3063.006	-9.12
3075.922	-16.12
3088.795	-17.12
3101.627	-17.12
3114.416	-14.12
3127.163	-20.12
3139.869	-19.12
3152.533	-26.12
3165.157	-29.12
3177.739	-27.12
3190.28	-33.12
3202.781	-37.12
3215.241	-41.12
3227.661	-45.12
3240.041	-43.12
3252.382	-43.12
3264.682	-43.12
3276.943	-43.12
3289.165	-44.12
3301.348	-48.12
3313.492	-51.12
3325.597	-55.12
3337.663	-54.12
3349.691	-55.12
3361.681	-51.12
3373.633	-51.12
3385.547	-57.12
3397.424	-51.12
3409.263	-56.12
3421.065	-57.12
3432.829	-55.12
3444.557	-58.12
3456.247	-61.12
3467.902	-63.12
3479.519	-62.12
3491.101	-64.12
3502.646	-66.12
3514.155	-60.12
3525.629	-74.12
3537.067	-68.12
3548.469	-69.12
3559.837	-62.12
3571.169	-69.12
3582.466	-68.12
3593.728	-66.12
3604.956	-70.12
3616.149	-77.12
3627.307	-70.12
3638.432	-71.12
3649.523	-73.12
3660.579	-69.12
3671.602	-66.12
3682.591	-64.12
3693.547	-70.12
3704.47	-75.12
3715.359	-78.12
3726.216	-77.12
3737.039	-73.12
3747.83	-77.12
3758.589	-79.12
3769.315	-75.12
3780.008	-81.12
3790.67	-70.12
3801.299	-76.12
3811.897	-75.12
3822.463	-80.12
3832.998	-72.12
3843.501	-75.12
3853.973	-73.12
3864.414	-77.12
3874.823	-41.12
3885.202	49.88
3895.55	-60.12
3905.868	-73.12
3916.155	-76.12
3926.411	-78.12
3936.638	-81.12
3946.834	-73.12
3957	-75.12
3967.137	-73.12
3977.244	-77.12
3987.321	-75.12
3997.369	-77.12
4007.388	-75.12
4017.377	-77.12
4027.338	-70.12
4037.269	-79.12
4047.172	-75.12
4057.046	-77.12
4066.891	-76.12
4076.708	-76.12
4086.497	-79.12
4096.257	-75.12
4105.989	35.88
4115.694	19.88
4125.37	-78.12
4135.019	-77.12
4142.237	-81.12