File: Data/Raman/2017-08-29 - Alluminum 2/Aug 29 2017 - Aluminum 2/EC 110 4_RamanShift_2.txt
Data from EC 110 4_RamanShift_2.txt Node

Date: Tue Aug 29 12:35:37 IDT 2017
User: aro
Spectrometer: QEPB0276
Trigger mode: 0
Integration Time (sec): 3.000000E1
Scans to average: 1
Electric dark correction enabled: true
Nonlinearity correction enabled: false
Boxcar width: 0
XAxis mode: Raman Shifts
Number of Pixels in Spectrum: 1044
>>>>>Begin Spectral Data<<<<<
160.701	27.75
184.826	398.75
208.845	1728.75
232.758	1795.75
256.565	1892.75
280.267	1989.75
303.865	2106.75
327.359	2188.75
350.751	2296.75
374.04	2521.75
397.228	2571.75
420.315	3962.75
443.302	2635.75
466.189	2369.75
488.978	2278.75
511.668	1713.75
534.261	1226.75
556.756	1082.75
579.155	1053.75
601.459	1029.75
623.667	983.75
645.781	1341.75
667.8	931.75
689.726	839.75
711.56	804.75
733.301	812.75
754.951	970.75
776.509	889.75
797.977	979.75
819.355	939.75
840.644	867.75
861.844	765.75
882.955	707.75
903.979	675.75
924.916	677.75
945.766	664.75
966.529	643.75
987.208	632.75
1007.801	652.75
1028.309	672.75
1048.734	702.75
1069.075	678.75
1089.333	683.75
1109.509	649.75
1129.602	590.75
1149.614	610.75
1169.545	633.75
1189.395	622.75
1209.165	640.75
1228.856	640.75
1248.467	615.75
1268	559.75
1287.455	540.75
1306.832	559.75
1326.132	560.75
1345.354	525.75
1364.501	509.75
1383.572	499.75
1402.567	480.75
1421.487	469.75
1440.333	483.75
1459.104	491.75
1477.802	479.75
1496.426	485.75
1514.978	508.75
1533.457	488.75
1551.864	470.75
1570.199	451.75
1588.464	434.75
1606.657	428.75
1624.78	409.75
1642.834	422.75
1660.817	435.75
1678.732	422.75
1696.577	423.75
1714.355	427.75
1732.064	387.75
1749.705	363.75
1767.28	339.75
1784.787	327.75
1802.228	348.75
1819.603	317.75
1836.913	305.75
1854.156	289.75
1871.335	313.75
1888.449	307.75
1905.499	294.75
1922.485	315.75
1939.408	316.75
1956.267	303.75
1973.063	281.75
1989.797	246.75
2006.469	253.75
2023.078	240.75
2039.627	223.75
2056.114	222.75
2072.54	232.75
2088.906	231.75
2105.211	223.75
2121.457	216.75
2137.643	205.75
2153.77	196.75
2169.838	186.75
2185.848	177.75
2201.799	172.75
2217.693	168.75
2233.529	172.75
2249.307	159.75
2265.029	153.75
2280.694	142.75
2296.302	133.75
2311.854	129.75
2327.351	146.75
2342.792	122.75
2358.178	118.75
2373.508	118.75
2388.785	115.75
2404.007	111.75
2419.174	108.75
2434.289	103.75
2449.349	95.75
2464.356	89.75
2479.311	91.75
2494.213	83.75
2509.062	84.75
2523.859	83.75
2538.605	77.75
2553.299	78.75
2567.941	81.75
2582.533	70.75
2597.073	63.75
2611.564	68.75
2626.004	59.75
2640.394	56.75
2654.734	54.75
2669.025	46.75
2683.266	42.75
2697.458	33.75
2711.602	25.75
2725.697	21.75
2739.744	29.75
2753.743	25.75
2767.695	32.75
2781.598	21.75
2795.455	24.75
2809.264	18.75
2823.026	22.75
2836.742	24.75
2850.412	18.75
2864.035	10.75
2877.613	9.75
2891.145	4.75
2904.631	-7.25
2918.073	-12.25
2931.469	-4.25
2944.821	-11.25
2958.128	-15.25
2971.39	-16.25
2984.609	-18.25
2997.784	-16.25
3010.915	-21.25
3024.002	-27.25
3037.046	-32.25
3050.048	-32.25
3063.006	-35.25
3075.922	-36.25
3088.795	-39.25
3101.627	-32.25
3114.416	-28.25
3127.163	-39.25
3139.869	-34.25
3152.533	-36.25
3165.157	-37.25
3177.739	-39.25
3190.28	-46.25
3202.781	-45.25
3215.241	-43.25
3227.661	-51.25
3240.041	-48.25
3252.382	-47.25
3264.682	-53.25
3276.943	-54.25
3289.165	-58.25
3301.348	-56.25
3313.492	-56.25
3325.597	-62.25
3337.663	-68.25
3349.691	-62.25
3361.681	-59.25
3373.633	-54.25
3385.547	-65.25
3397.424	-59.25
3409.263	-59.25
3421.065	-55.25
3432.829	-55.25
3444.557	-59.25
3456.247	-60.25
3467.902	-63.25
3479.519	-59.25
3491.101	-65.25
3502.646	-64.25
3514.155	-62.25
3525.629	-69.25
3537.067	-66.25
3548.469	-68.25
3559.837	-63.25
3571.169	-70.25
3582.466	-67.25
3593.728	-69.25
3604.956	-66.25
3616.149	-75.25
3627.307	-74.25
3638.432	-66.25
3649.523	-75.25
3660.579	-68.25
3671.602	-72.25
3682.591	-70.25
3693.547	-68.25
3704.47	-74.25
3715.359	-67.25
3726.216	-76.25
3737.039	-74.25
3747.83	-75.25
3758.589	-76.25
3769.315	-76.25
3780.008	-82.25
3790.67	-71.25
3801.299	-71.25
3811.897	-75.25
3822.463	-73.25
3832.998	-74.25
3843.501	-69.25
3853.973	-72.25
3864.414	-75.25
3874.823	-37.25
3885.202	68.75
3895.55	-61.25
3905.868	-72.25
3916.155	-74.25
3926.411	-73.25
3936.638	-80.25
3946.834	-71.25
3957	-76.25
3967.137	-72.25
3977.244	-77.25
3987.321	-71.25
3997.369	-75.25
4007.388	-69.25
4017.377	-68.25
4027.338	-65.25
4037.269	-69.25
4047.172	-72.25
4057.046	-69.25
4066.891	-73.25
4076.708	-75.25
4086.497	-73.25
4096.257	-73.25
4105.989	43.75
4115.694	28.75
4125.37	-77.25
4135.019	-75.25
4142.237	-78.25