File: Data/Raman/2017-08-29 - Alluminum 2/Aug 29 2017 - Aluminum 2/EC 11 5_RamanShift_1.txt
Data from EC 11 5_RamanShift_1.txt Node

Date: Tue Aug 29 12:55:37 IDT 2017
User: aro
Spectrometer: QEPB0276
Trigger mode: 0
Integration Time (sec): 3.000000E1
Scans to average: 1
Electric dark correction enabled: true
Nonlinearity correction enabled: false
Boxcar width: 0
XAxis mode: Raman Shifts
Number of Pixels in Spectrum: 1044
>>>>>Begin Spectral Data<<<<<
160.701	8.88
184.826	1358.88
208.845	6181.88
232.758	6785.88
256.565	7170.88
280.267	7504.88
303.865	7764.88
327.359	7907.88
350.751	7997.88
374.04	8077.88
397.228	8146.88
420.315	9396.88
443.302	8123.88
466.189	7832.88
488.978	7684.88
511.668	7121.88
534.261	6567.88
556.756	6348.88
579.155	6255.88
601.459	6168.88
623.667	5942.88
645.781	6217.88
667.8	5787.88
689.726	5651.88
711.56	5522.88
733.301	5423.88
754.951	5475.88
776.509	5442.88
797.977	5418.88
819.355	5278.88
840.644	5210.88
861.844	5117.88
882.955	4964.88
903.979	4822.88
924.916	4793.88
945.766	4775.88
966.529	4639.88
987.208	4468.88
1007.801	4575.88
1028.309	4628.88
1048.734	4527.88
1069.075	4389.88
1089.333	4422.88
1109.509	4382.88
1129.602	4177.88
1149.614	4123.88
1169.545	4160.88
1189.395	4070.88
1209.165	4035.88
1228.856	4105.88
1248.467	4049.88
1268	3797.88
1287.455	3737.88
1306.832	3799.88
1326.132	3754.88
1345.354	3547.88
1364.501	3603.88
1383.572	3688.88
1402.567	3436.88
1421.487	3271.88
1440.333	3344.88
1459.104	3413.88
1477.802	3346.88
1496.426	3489.88
1514.978	3679.88
1533.457	3582.88
1551.864	3346.88
1570.199	3140.88
1588.464	3084.88
1606.657	2926.88
1624.78	2797.88
1642.834	2892.88
1660.817	3008.88
1678.732	3031.88
1696.577	2991.88
1714.355	3107.88
1732.064	2913.88
1749.705	2687.88
1767.28	2512.88
1784.787	2562.88
1802.228	2706.88
1819.603	2537.88
1836.913	2346.88
1854.156	2305.88
1871.335	2350.88
1888.449	2371.88
1905.499	2394.88
1922.485	2511.88
1939.408	2590.88
1956.267	2439.88
1973.063	2181.88
1989.797	2011.88
2006.469	1913.88
2023.078	1843.88
2039.627	1756.88
2056.114	1759.88
2072.54	1830.88
2088.906	1882.88
2105.211	1824.88
2121.457	1719.88
2137.643	1608.88
2153.77	1520.88
2169.838	1442.88
2185.848	1342.88
2201.799	1286.88
2217.693	1280.88
2233.529	1247.88
2249.307	1192.88
2265.029	1123.88
2280.694	1069.88
2296.302	1010.88
2311.854	952.88
2327.351	899.88
2342.792	836.88
2358.178	820.88
2373.508	823.88
2388.785	796.88
2404.007	768.88
2419.174	742.88
2434.289	713.88
2449.349	708.88
2464.356	661.88
2479.311	654.88
2494.213	672.88
2509.062	668.88
2523.859	651.88
2538.605	654.88
2553.299	648.88
2567.941	638.88
2582.533	615.88
2597.073	569.88
2611.564	549.88
2626.004	505.88
2640.394	478.88
2654.734	429.88
2669.025	397.88
2683.266	384.88
2697.458	338.88
2711.602	309.88
2725.697	303.88
2739.744	309.88
2753.743	319.88
2767.695	328.88
2781.598	294.88
2795.455	277.88
2809.264	263.88
2823.026	269.88
2836.742	254.88
2850.412	237.88
2864.035	227.88
2877.613	216.88
2891.145	183.88
2904.631	154.88
2918.073	132.88
2931.469	116.88
2944.821	105.88
2958.128	96.88
2971.39	81.88
2984.609	83.88
2997.784	77.88
3010.915	70.88
3024.002	44.88
3037.046	26.88
3050.048	13.88
3063.006	-2.12
3075.922	2.88
3088.795	-6.12
3101.627	-4.12
3114.416	-14.12
3127.163	-28.12
3139.869	-22.12
3152.533	-35.12
3165.157	-46.12
3177.739	-55.12
3190.28	-69.12
3202.781	-71.12
3215.241	-76.12
3227.661	-86.12
3240.041	-86.12
3252.382	-91.12
3264.682	-95.12
3276.943	-103.12
3289.165	-105.12
3301.348	-112.12
3313.492	-115.12
3325.597	-128.12
3337.663	-127.12
3349.691	-123.12
3361.681	-128.12
3373.633	-125.12
3385.547	-133.12
3397.424	-127.12
3409.263	-136.12
3421.065	-139.12
3432.829	-142.12
3444.557	-140.12
3456.247	-145.12
3467.902	-153.12
3479.519	-147.12
3491.101	-155.12
3502.646	-150.12
3514.155	-158.12
3525.629	-164.12
3537.067	-162.12
3548.469	-167.12
3559.837	-163.12
3571.169	-167.12
3582.466	-163.12
3593.728	-164.12
3604.956	-169.12
3616.149	-179.12
3627.307	-174.12
3638.432	-173.12
3649.523	-173.12
3660.579	-173.12
3671.602	-174.12
3682.591	-173.12
3693.547	-173.12
3704.47	-179.12
3715.359	-171.12
3726.216	-180.12
3737.039	-175.12
3747.83	-175.12
3758.589	-179.12
3769.315	-177.12
3780.008	-186.12
3790.67	-180.12
3801.299	-175.12
3811.897	-184.12
3822.463	-179.12
3832.998	-178.12
3843.501	-181.12
3853.973	-180.12
3864.414	-178.12
3874.823	-151.12
3885.202	-62.12
3895.55	-168.12
3905.868	-178.12
3916.155	-182.12
3926.411	-182.12
3936.638	-184.12
3946.834	-180.12
3957	-180.12
3967.137	-180.12
3977.244	-184.12
3987.321	-175.12
3997.369	-175.12
4007.388	-172.12
4017.377	-170.12
4027.338	-171.12
4037.269	-171.12
4047.172	-175.12
4057.046	-173.12
4066.891	-181.12
4076.708	-176.12
4086.497	-174.12
4096.257	-186.12
4105.989	-15.12
4115.694	-18.12
4125.37	-178.12
4135.019	-185.12
4142.237	-190.12