File: Data/Raman/2017-08-29 - Alluminum 2/Aug 29 2017 - Aluminum 2/EC 110 1_RamanShift_1.txt
Data from EC 110 1_RamanShift_1.txt Node

Date: Tue Aug 29 12:08:07 IDT 2017
User: aro
Spectrometer: QEPB0276
Trigger mode: 0
Integration Time (sec): 3.000000E1
Scans to average: 1
Electric dark correction enabled: true
Nonlinearity correction enabled: false
Boxcar width: 0
XAxis mode: Raman Shifts
Number of Pixels in Spectrum: 1044
>>>>>Begin Spectral Data<<<<<
160.701	40.38
184.826	505.38
208.845	2154.38
232.758	2316.38
256.565	2493.38
280.267	2676.38
303.865	2887.38
327.359	3030.38
350.751	3171.38
374.04	3512.38
397.228	3540.38
420.315	5669.38
443.302	3681.38
466.189	3330.38
488.978	3161.38
511.668	2375.38
534.261	1594.38
556.756	1383.38
579.155	1341.38
601.459	1301.38
623.667	1225.38
645.781	1777.38
667.8	1153.38
689.726	1031.38
711.56	987.38
733.301	988.38
754.951	1212.38
776.509	1124.38
797.977	1244.38
819.355	1182.38
840.644	1078.38
861.844	940.38
882.955	838.38
903.979	821.38
924.916	798.38
945.766	796.38
966.529	758.38
987.208	754.38
1007.801	778.38
1028.309	805.38
1048.734	837.38
1069.075	845.38
1089.333	823.38
1109.509	785.38
1129.602	705.38
1149.614	715.38
1169.545	749.38
1189.395	742.38
1209.165	738.38
1228.856	746.38
1248.467	718.38
1268	665.38
1287.455	627.38
1306.832	648.38
1326.132	634.38
1345.354	602.38
1364.501	596.38
1383.572	593.38
1402.567	557.38
1421.487	541.38
1440.333	549.38
1459.104	559.38
1477.802	534.38
1496.426	555.38
1514.978	593.38
1533.457	564.38
1551.864	543.38
1570.199	514.38
1588.464	505.38
1606.657	487.38
1624.78	463.38
1642.834	484.38
1660.817	504.38
1678.732	474.38
1696.577	477.38
1714.355	469.38
1732.064	441.38
1749.705	413.38
1767.28	376.38
1784.787	374.38
1802.228	386.38
1819.603	366.38
1836.913	342.38
1854.156	340.38
1871.335	353.38
1888.449	335.38
1905.499	338.38
1922.485	353.38
1939.408	362.38
1956.267	339.38
1973.063	309.38
1989.797	285.38
2006.469	277.38
2023.078	272.38
2039.627	256.38
2056.114	256.38
2072.54	263.38
2088.906	267.38
2105.211	256.38
2121.457	244.38
2137.643	216.38
2153.77	224.38
2169.838	201.38
2185.848	194.38
2201.799	192.38
2217.693	184.38
2233.529	199.38
2249.307	176.38
2265.029	173.38
2280.694	157.38
2296.302	149.38
2311.854	138.38
2327.351	152.38
2342.792	132.38
2358.178	126.38
2373.508	128.38
2388.785	116.38
2404.007	113.38
2419.174	114.38
2434.289	121.38
2449.349	96.38
2464.356	100.38
2479.311	94.38
2494.213	89.38
2509.062	93.38
2523.859	82.38
2538.605	86.38
2553.299	90.38
2567.941	78.38
2582.533	70.38
2597.073	74.38
2611.564	67.38
2626.004	57.38
2640.394	54.38
2654.734	44.38
2669.025	43.38
2683.266	42.38
2697.458	33.38
2711.602	22.38
2725.697	22.38
2739.744	25.38
2753.743	27.38
2767.695	27.38
2781.598	21.38
2795.455	19.38
2809.264	6.38
2823.026	16.38
2836.742	13.38
2850.412	3.38
2864.035	6.38
2877.613	-4.62
2891.145	-2.62
2904.631	-8.62
2918.073	-18.62
2931.469	-18.62
2944.821	-17.62
2958.128	-21.62
2971.39	-24.62
2984.609	-32.62
2997.784	-25.62
3010.915	-33.62
3024.002	-34.62
3037.046	-38.62
3050.048	-50.62
3063.006	-51.62
3075.922	-40.62
3088.795	-47.62
3101.627	-45.62
3114.416	-46.62
3127.163	-49.62
3139.869	-48.62
3152.533	-52.62
3165.157	-57.62
3177.739	-58.62
3190.28	-59.62
3202.781	-64.62
3215.241	-72.62
3227.661	-65.62
3240.041	-69.62
3252.382	-71.62
3264.682	-67.62
3276.943	-72.62
3289.165	-71.62
3301.348	-71.62
3313.492	-73.62
3325.597	-78.62
3337.663	-83.62
3349.691	-75.62
3361.681	-81.62
3373.633	-75.62
3385.547	-78.62
3397.424	-74.62
3409.263	-85.62
3421.065	-83.62
3432.829	-78.62
3444.557	-76.62
3456.247	-83.62
3467.902	-90.62
3479.519	-82.62
3491.101	-87.62
3502.646	-87.62
3514.155	-84.62
3525.629	-88.62
3537.067	-93.62
3548.469	-89.62
3559.837	-87.62
3571.169	-88.62
3582.466	-88.62
3593.728	-87.62
3604.956	-85.62
3616.149	-96.62
3627.307	-89.62
3638.432	-88.62
3649.523	-93.62
3660.579	-91.62
3671.602	-95.62
3682.591	-96.62
3693.547	-94.62
3704.47	-97.62
3715.359	-96.62
3726.216	-96.62
3737.039	-101.62
3747.83	-101.62
3758.589	-96.62
3769.315	-97.62
3780.008	-103.62
3790.67	-94.62
3801.299	-94.62
3811.897	-93.62
3822.463	-93.62
3832.998	-88.62
3843.501	-91.62
3853.973	-85.62
3864.414	-92.62
3874.823	-51.62
3885.202	96.38
3895.55	-71.62
3905.868	-96.62
3916.155	-97.62
3926.411	-97.62
3936.638	-102.62
3946.834	-93.62
3957	-92.62
3967.137	-96.62
3977.244	-91.62
3987.321	-94.62
3997.369	-95.62
4007.388	-91.62
4017.377	-89.62
4027.338	-89.62
4037.269	-97.62
4047.172	-94.62
4057.046	-92.62
4066.891	-96.62
4076.708	-95.62
4086.497	-94.62
4096.257	-99.62
4105.989	56.38
4115.694	38.38
4125.37	-95.62
4135.019	-99.62
4142.237	-102.62