File: Data/Raman/2017-08-29 - Alluminum 2/Aug 29 2017 - Aluminum 2/EC 11 5_RamanShift_3.txt
Data from EC 11 5_RamanShift_3.txt Node

Date: Tue Aug 29 12:56:37 IDT 2017
User: aro
Spectrometer: QEPB0276
Trigger mode: 0
Integration Time (sec): 3.000000E1
Scans to average: 1
Electric dark correction enabled: true
Nonlinearity correction enabled: false
Boxcar width: 0
XAxis mode: Raman Shifts
Number of Pixels in Spectrum: 1044
>>>>>Begin Spectral Data<<<<<
160.701	16.5
184.826	996.5
208.845	4492.5
232.758	4895.5
256.565	5212.5
280.267	5452.5
303.865	5679.5
327.359	5798.5
350.751	5874.5
374.04	6055.5
397.228	6067.5
420.315	7353.5
443.302	6109.5
466.189	5875.5
488.978	5734.5
511.668	5191.5
534.261	4678.5
556.756	4511.5
579.155	4448.5
601.459	4369.5
623.667	4249.5
645.781	4507.5
667.8	4116.5
689.726	3989.5
711.56	3914.5
733.301	3875.5
754.951	4008.5
776.509	3891.5
797.977	3930.5
819.355	3835.5
840.644	3742.5
861.844	3700.5
882.955	3586.5
903.979	3493.5
924.916	3468.5
945.766	3452.5
966.529	3355.5
987.208	3241.5
1007.801	3334.5
1028.309	3377.5
1048.734	3312.5
1069.075	3232.5
1089.333	3285.5
1109.509	3241.5
1129.602	3059.5
1149.614	3064.5
1169.545	3066.5
1189.395	3016.5
1209.165	2986.5
1228.856	3063.5
1248.467	3013.5
1268	2840.5
1287.455	2769.5
1306.832	2830.5
1326.132	2800.5
1345.354	2642.5
1364.501	2659.5
1383.572	2747.5
1402.567	2550.5
1421.487	2453.5
1440.333	2492.5
1459.104	2546.5
1477.802	2474.5
1496.426	2573.5
1514.978	2724.5
1533.457	2689.5
1551.864	2476.5
1570.199	2379.5
1588.464	2308.5
1606.657	2182.5
1624.78	2121.5
1642.834	2154.5
1660.817	2259.5
1678.732	2265.5
1696.577	2257.5
1714.355	2351.5
1732.064	2194.5
1749.705	2001.5
1767.28	1889.5
1784.787	1911.5
1802.228	2031.5
1819.603	1910.5
1836.913	1750.5
1854.156	1719.5
1871.335	1763.5
1888.449	1793.5
1905.499	1805.5
1922.485	1877.5
1939.408	1964.5
1956.267	1855.5
1973.063	1654.5
1989.797	1502.5
2006.469	1440.5
2023.078	1403.5
2039.627	1348.5
2056.114	1325.5
2072.54	1385.5
2088.906	1431.5
2105.211	1381.5
2121.457	1293.5
2137.643	1231.5
2153.77	1180.5
2169.838	1119.5
2185.848	1038.5
2201.799	1000.5
2217.693	997.5
2233.529	968.5
2249.307	930.5
2265.029	889.5
2280.694	819.5
2296.302	802.5
2311.854	739.5
2327.351	714.5
2342.792	667.5
2358.178	651.5
2373.508	657.5
2388.785	638.5
2404.007	617.5
2419.174	608.5
2434.289	596.5
2449.349	573.5
2464.356	542.5
2479.311	525.5
2494.213	527.5
2509.062	543.5
2523.859	520.5
2538.605	524.5
2553.299	523.5
2567.941	524.5
2582.533	495.5
2597.073	463.5
2611.564	446.5
2626.004	418.5
2640.394	376.5
2654.734	355.5
2669.025	338.5
2683.266	313.5
2697.458	281.5
2711.602	266.5
2725.697	249.5
2739.744	260.5
2753.743	270.5
2767.695	265.5
2781.598	248.5
2795.455	233.5
2809.264	230.5
2823.026	227.5
2836.742	216.5
2850.412	201.5
2864.035	200.5
2877.613	179.5
2891.145	166.5
2904.631	129.5
2918.073	123.5
2931.469	109.5
2944.821	105.5
2958.128	81.5
2971.39	78.5
2984.609	70.5
2997.784	67.5
3010.915	66.5
3024.002	36.5
3037.046	33.5
3050.048	21.5
3063.006	6.5
3075.922	12.5
3088.795	2.5
3101.627	7.5
3114.416	3.5
3127.163	-5.5
3139.869	-11.5
3152.533	-20.5
3165.157	-32.5
3177.739	-30.5
3190.28	-42.5
3202.781	-48.5
3215.241	-59.5
3227.661	-61.5
3240.041	-64.5
3252.382	-66.5
3264.682	-70.5
3276.943	-70.5
3289.165	-75.5
3301.348	-79.5
3313.492	-82.5
3325.597	-97.5
3337.663	-98.5
3349.691	-96.5
3361.681	-97.5
3373.633	-100.5
3385.547	-104.5
3397.424	-99.5
3409.263	-105.5
3421.065	-102.5
3432.829	-102.5
3444.557	-106.5
3456.247	-111.5
3467.902	-116.5
3479.519	-110.5
3491.101	-119.5
3502.646	-116.5
3514.155	-116.5
3525.629	-124.5
3537.067	-125.5
3548.469	-132.5
3559.837	-123.5
3571.169	-128.5
3582.466	-123.5
3593.728	-127.5
3604.956	-129.5
3616.149	-137.5
3627.307	-133.5
3638.432	-135.5
3649.523	-136.5
3660.579	-134.5
3671.602	-130.5
3682.591	-134.5
3693.547	-138.5
3704.47	-140.5
3715.359	-138.5
3726.216	-139.5
3737.039	-140.5
3747.83	-140.5
3758.589	-141.5
3769.315	-135.5
3780.008	-146.5
3790.67	-136.5
3801.299	-141.5
3811.897	-138.5
3822.463	-143.5
3832.998	-139.5
3843.501	-137.5
3853.973	-140.5
3864.414	-142.5
3874.823	-114.5
3885.202	-29.5
3895.55	-127.5
3905.868	-138.5
3916.155	-142.5
3926.411	-146.5
3936.638	-144.5
3946.834	-141.5
3957	-140.5
3967.137	-140.5
3977.244	-141.5
3987.321	-137.5
3997.369	-142.5
4007.388	-133.5
4017.377	-134.5
4027.338	-133.5
4037.269	-136.5
4047.172	-137.5
4057.046	-134.5
4066.891	-139.5
4076.708	-141.5
4086.497	-142.5
4096.257	-147.5
4105.989	-3.5
4115.694	-5.5
4125.37	-138.5
4135.019	-143.5
4142.237	-148.5