File: Data/Raman/2017-08-29 - Alluminum 2/Aug 29 2017 - Aluminum 2/EC 110 1_RamanShift_3.txt
Data from EC 110 1_RamanShift_3.txt Node

Date: Tue Aug 29 12:09:07 IDT 2017
User: aro
Spectrometer: QEPB0276
Trigger mode: 0
Integration Time (sec): 3.000000E1
Scans to average: 1
Electric dark correction enabled: true
Nonlinearity correction enabled: false
Boxcar width: 0
XAxis mode: Raman Shifts
Number of Pixels in Spectrum: 1044
>>>>>Begin Spectral Data<<<<<
160.701	39.12
184.826	477.12
208.845	2098.12
232.758	2232.12
256.565	2416.12
280.267	2596.12
303.865	2808.12
327.359	2944.12
350.751	3092.12
374.04	3412.12
397.228	3497.12
420.315	5576.12
443.302	3638.12
466.189	3224.12
488.978	3083.12
511.668	2292.12
534.261	1536.12
556.756	1325.12
579.155	1287.12
601.459	1265.12
623.667	1175.12
645.781	1693.12
667.8	1106.12
689.726	961.12
711.56	933.12
733.301	954.12
754.951	1147.12
776.509	1081.12
797.977	1192.12
819.355	1142.12
840.644	1043.12
861.844	893.12
882.955	805.12
903.979	770.12
924.916	746.12
945.766	749.12
966.529	732.12
987.208	708.12
1007.801	727.12
1028.309	764.12
1048.734	801.12
1069.075	802.12
1089.333	788.12
1109.509	734.12
1129.602	679.12
1149.614	687.12
1169.545	718.12
1189.395	707.12
1209.165	713.12
1228.856	714.12
1248.467	686.12
1268	626.12
1287.455	602.12
1306.832	618.12
1326.132	609.12
1345.354	579.12
1364.501	580.12
1383.572	574.12
1402.567	533.12
1421.487	516.12
1440.333	532.12
1459.104	546.12
1477.802	525.12
1496.426	522.12
1514.978	558.12
1533.457	546.12
1551.864	512.12
1570.199	491.12
1588.464	479.12
1606.657	475.12
1624.78	456.12
1642.834	466.12
1660.817	473.12
1678.732	463.12
1696.577	461.12
1714.355	452.12
1732.064	417.12
1749.705	371.12
1767.28	358.12
1784.787	362.12
1802.228	369.12
1819.603	354.12
1836.913	325.12
1854.156	329.12
1871.335	329.12
1888.449	330.12
1905.499	324.12
1922.485	341.12
1939.408	341.12
1956.267	322.12
1973.063	290.12
1989.797	274.12
2006.469	267.12
2023.078	262.12
2039.627	247.12
2056.114	240.12
2072.54	246.12
2088.906	255.12
2105.211	247.12
2121.457	231.12
2137.643	216.12
2153.77	210.12
2169.838	198.12
2185.848	188.12
2201.799	185.12
2217.693	182.12
2233.529	185.12
2249.307	176.12
2265.029	164.12
2280.694	151.12
2296.302	144.12
2311.854	140.12
2327.351	150.12
2342.792	132.12
2358.178	125.12
2373.508	126.12
2388.785	122.12
2404.007	120.12
2419.174	113.12
2434.289	110.12
2449.349	113.12
2464.356	97.12
2479.311	93.12
2494.213	94.12
2509.062	87.12
2523.859	82.12
2538.605	80.12
2553.299	82.12
2567.941	82.12
2582.533	78.12
2597.073	67.12
2611.564	64.12
2626.004	54.12
2640.394	53.12
2654.734	48.12
2669.025	40.12
2683.266	47.12
2697.458	33.12
2711.602	26.12
2725.697	20.12
2739.744	23.12
2753.743	26.12
2767.695	27.12
2781.598	16.12
2795.455	18.12
2809.264	5.12
2823.026	19.12
2836.742	18.12
2850.412	7.12
2864.035	13.12
2877.613	2.12
2891.145	-1.88
2904.631	-7.88
2918.073	-20.88
2931.469	-15.88
2944.821	-19.88
2958.128	-17.88
2971.39	-23.88
2984.609	-34.88
2997.784	-16.88
3010.915	-27.88
3024.002	-34.88
3037.046	-32.88
3050.048	-40.88
3063.006	-45.88
3075.922	-41.88
3088.795	-46.88
3101.627	-49.88
3114.416	-40.88
3127.163	-47.88
3139.869	-48.88
3152.533	-50.88
3165.157	-48.88
3177.739	-54.88
3190.28	-57.88
3202.781	-60.88
3215.241	-60.88
3227.661	-59.88
3240.041	-62.88
3252.382	-64.88
3264.682	-66.88
3276.943	-69.88
3289.165	-65.88
3301.348	-73.88
3313.492	-74.88
3325.597	-76.88
3337.663	-74.88
3349.691	-71.88
3361.681	-77.88
3373.633	-76.88
3385.547	-75.88
3397.424	-69.88
3409.263	-74.88
3421.065	-76.88
3432.829	-76.88
3444.557	-78.88
3456.247	-84.88
3467.902	-89.88
3479.519	-79.88
3491.101	-83.88
3502.646	-81.88
3514.155	-80.88
3525.629	-86.88
3537.067	-82.88
3548.469	-85.88
3559.837	-80.88
3571.169	-81.88
3582.466	-82.88
3593.728	-82.88
3604.956	-80.88
3616.149	-92.88
3627.307	-91.88
3638.432	-84.88
3649.523	-85.88
3660.579	-90.88
3671.602	-88.88
3682.591	-89.88
3693.547	-85.88
3704.47	-95.88
3715.359	-92.88
3726.216	-93.88
3737.039	-92.88
3747.83	-94.88
3758.589	-93.88
3769.315	-91.88
3780.008	-101.88
3790.67	-88.88
3801.299	-90.88
3811.897	-95.88
3822.463	-90.88
3832.998	-92.88
3843.501	-91.88
3853.973	-87.88
3864.414	-89.88
3874.823	-37.88
3885.202	96.12
3895.55	-70.88
3905.868	-90.88
3916.155	-89.88
3926.411	-89.88
3936.638	-97.88
3946.834	-90.88
3957	-89.88
3967.137	-89.88
3977.244	-91.88
3987.321	-91.88
3997.369	-100.88
4007.388	-87.88
4017.377	-86.88
4027.338	-90.88
4037.269	-91.88
4047.172	-90.88
4057.046	-84.88
4066.891	-91.88
4076.708	-87.88
4086.497	-91.88
4096.257	-90.88
4105.989	59.12
4115.694	41.12
4125.37	-92.88
4135.019	-96.88
4142.237	-96.88