File: Data/Raman/2017-08-29 - Alluminum 2/Aug 29 2017 - Aluminum 2/EC 110 2_RamanShift_2.txt
Data from EC 110 2_RamanShift_2.txt Node

Date: Tue Aug 29 12:10:37 IDT 2017
User: aro
Spectrometer: QEPB0276
Trigger mode: 0
Integration Time (sec): 3.000000E1
Scans to average: 1
Electric dark correction enabled: true
Nonlinearity correction enabled: false
Boxcar width: 0
XAxis mode: Raman Shifts
Number of Pixels in Spectrum: 1044
>>>>>Begin Spectral Data<<<<<
160.701	32.75
184.826	601.75
208.845	2721.75
232.758	2908.75
256.565	3117.75
280.267	3289.75
303.865	3497.75
327.359	3601.75
350.751	3698.75
374.04	3959.75
397.228	4029.75
420.315	5572.75
443.302	4111.75
466.189	3803.75
488.978	3661.75
511.668	3013.75
534.261	2434.75
556.756	2256.75
579.155	2216.75
601.459	2178.75
623.667	2070.75
645.781	2497.75
667.8	1983.75
689.726	1889.75
711.56	1839.75
733.301	1837.75
754.951	1982.75
776.509	1931.75
797.977	2021.75
819.355	1924.75
840.644	1852.75
861.844	1751.75
882.955	1667.75
903.979	1630.75
924.916	1575.75
945.766	1592.75
966.529	1542.75
987.208	1495.75
1007.801	1540.75
1028.309	1568.75
1048.734	1556.75
1069.075	1540.75
1089.333	1541.75
1109.509	1489.75
1129.602	1418.75
1149.614	1402.75
1169.545	1408.75
1189.395	1404.75
1209.165	1402.75
1228.856	1430.75
1248.467	1386.75
1268	1279.75
1287.455	1244.75
1306.832	1265.75
1326.132	1256.75
1345.354	1173.75
1364.501	1155.75
1383.572	1153.75
1402.567	1102.75
1421.487	1064.75
1440.333	1083.75
1459.104	1081.75
1477.802	1022.75
1496.426	1025.75
1514.978	1059.75
1533.457	1044.75
1551.864	997.75
1570.199	977.75
1588.464	956.75
1606.657	912.75
1624.78	874.75
1642.834	883.75
1660.817	886.75
1678.732	868.75
1696.577	837.75
1714.355	825.75
1732.064	795.75
1749.705	747.75
1767.28	689.75
1784.787	653.75
1802.228	690.75
1819.603	652.75
1836.913	643.75
1854.156	627.75
1871.335	626.75
1888.449	630.75
1905.499	587.75
1922.485	610.75
1939.408	625.75
1956.267	620.75
1973.063	548.75
1989.797	522.75
2006.469	520.75
2023.078	490.75
2039.627	469.75
2056.114	467.75
2072.54	459.75
2088.906	467.75
2105.211	465.75
2121.457	439.75
2137.643	431.75
2153.77	404.75
2169.838	395.75
2185.848	365.75
2201.799	367.75
2217.693	354.75
2233.529	359.75
2249.307	336.75
2265.029	320.75
2280.694	308.75
2296.302	288.75
2311.854	287.75
2327.351	290.75
2342.792	258.75
2358.178	263.75
2373.508	268.75
2388.785	264.75
2404.007	260.75
2419.174	257.75
2434.289	249.75
2449.349	228.75
2464.356	216.75
2479.311	213.75
2494.213	213.75
2509.062	200.75
2523.859	198.75
2538.605	194.75
2553.299	188.75
2567.941	183.75
2582.533	179.75
2597.073	163.75
2611.564	159.75
2626.004	151.75
2640.394	152.75
2654.734	134.75
2669.025	122.75
2683.266	116.75
2697.458	103.75
2711.602	85.75
2725.697	81.75
2739.744	80.75
2753.743	70.75
2767.695	86.75
2781.598	65.75
2795.455	72.75
2809.264	67.75
2823.026	68.75
2836.742	65.75
2850.412	64.75
2864.035	61.75
2877.613	49.75
2891.145	37.75
2904.631	35.75
2918.073	16.75
2931.469	19.75
2944.821	10.75
2958.128	13.75
2971.39	6.75
2984.609	-3.25
2997.784	2.75
3010.915	-6.25
3024.002	-13.25
3037.046	-13.25
3050.048	-25.25
3063.006	-29.25
3075.922	-30.25
3088.795	-31.25
3101.627	-25.25
3114.416	-36.25
3127.163	-33.25
3139.869	-35.25
3152.533	-34.25
3165.157	-42.25
3177.739	-46.25
3190.28	-53.25
3202.781	-58.25
3215.241	-54.25
3227.661	-60.25
3240.041	-62.25
3252.382	-65.25
3264.682	-67.25
3276.943	-69.25
3289.165	-68.25
3301.348	-74.25
3313.492	-77.25
3325.597	-79.25
3337.663	-84.25
3349.691	-77.25
3361.681	-81.25
3373.633	-76.25
3385.547	-84.25
3397.424	-77.25
3409.263	-78.25
3421.065	-82.25
3432.829	-80.25
3444.557	-79.25
3456.247	-86.25
3467.902	-88.25
3479.519	-79.25
3491.101	-85.25
3502.646	-88.25
3514.155	-86.25
3525.629	-94.25
3537.067	-93.25
3548.469	-92.25
3559.837	-89.25
3571.169	-89.25
3582.466	-92.25
3593.728	-93.25
3604.956	-89.25
3616.149	-101.25
3627.307	-97.25
3638.432	-98.25
3649.523	-97.25
3660.579	-98.25
3671.602	-97.25
3682.591	-97.25
3693.547	-97.25
3704.47	-106.25
3715.359	-102.25
3726.216	-103.25
3737.039	-105.25
3747.83	-99.25
3758.589	-103.25
3769.315	-101.25
3780.008	-112.25
3790.67	-97.25
3801.299	-103.25
3811.897	-97.25
3822.463	-104.25
3832.998	-98.25
3843.501	-102.25
3853.973	-93.25
3864.414	-96.25
3874.823	-57.25
3885.202	77.75
3895.55	-84.25
3905.868	-99.25
3916.155	-103.25
3926.411	-107.25
3936.638	-106.25
3946.834	-103.25
3957	-98.25
3967.137	-93.25
3977.244	-103.25
3987.321	-99.25
3997.369	-98.25
4007.388	-96.25
4017.377	-96.25
4027.338	-99.25
4037.269	-103.25
4047.172	-98.25
4057.046	-100.25
4066.891	-103.25
4076.708	-98.25
4086.497	-101.25
4096.257	-103.25
4105.989	40.75
4115.694	23.75
4125.37	-101.25
4135.019	-101.25
4142.237	-106.25