File: Data/Raman/2017-08-29 - Alluminum 2/Aug 29 2017 - Aluminum 2/EC 12 1_RamanShift_3.txt
Data from EC 12 1_RamanShift_3.txt Node

Date: Tue Aug 29 12:13:37 IDT 2017
User: aro
Spectrometer: QEPB0276
Trigger mode: 0
Integration Time (sec): 3.000000E1
Scans to average: 1
Electric dark correction enabled: true
Nonlinearity correction enabled: false
Boxcar width: 0
XAxis mode: Raman Shifts
Number of Pixels in Spectrum: 1044
>>>>>Begin Spectral Data<<<<<
160.701	29.38
184.826	585.38
208.845	2608.38
232.758	2831.38
256.565	2988.38
280.267	3138.38
303.865	3328.38
327.359	3416.38
350.751	3525.38
374.04	3730.38
397.228	3803.38
420.315	5199.38
443.302	3844.38
466.189	3582.38
488.978	3489.38
511.668	2896.38
534.261	2367.38
556.756	2214.38
579.155	2182.38
601.459	2137.38
623.667	2047.38
645.781	2425.38
667.8	1995.38
689.726	1889.38
711.56	1834.38
733.301	1837.38
754.951	1964.38
776.509	1908.38
797.977	1967.38
819.355	1908.38
840.644	1825.38
861.844	1725.38
882.955	1655.38
903.979	1609.38
924.916	1604.38
945.766	1594.38
966.529	1562.38
987.208	1515.38
1007.801	1544.38
1028.309	1588.38
1048.734	1563.38
1069.075	1544.38
1089.333	1546.38
1109.509	1504.38
1129.602	1411.38
1149.614	1430.38
1169.545	1429.38
1189.395	1436.38
1209.165	1404.38
1228.856	1426.38
1248.467	1402.38
1268	1294.38
1287.455	1255.38
1306.832	1283.38
1326.132	1243.38
1345.354	1176.38
1364.501	1142.38
1383.572	1166.38
1402.567	1104.38
1421.487	1087.38
1440.333	1093.38
1459.104	1084.38
1477.802	1022.38
1496.426	1037.38
1514.978	1072.38
1533.457	1069.38
1551.864	1018.38
1570.199	993.38
1588.464	979.38
1606.657	919.38
1624.78	885.38
1642.834	886.38
1660.817	905.38
1678.732	880.38
1696.577	847.38
1714.355	858.38
1732.064	821.38
1749.705	764.38
1767.28	704.38
1784.787	679.38
1802.228	716.38
1819.603	688.38
1836.913	670.38
1854.156	644.38
1871.335	643.38
1888.449	650.38
1905.499	623.38
1922.485	637.38
1939.408	654.38
1956.267	655.38
1973.063	581.38
1989.797	543.38
2006.469	528.38
2023.078	510.38
2039.627	487.38
2056.114	477.38
2072.54	480.38
2088.906	503.38
2105.211	476.38
2121.457	471.38
2137.643	441.38
2153.77	425.38
2169.838	407.38
2185.848	391.38
2201.799	375.38
2217.693	376.38
2233.529	370.38
2249.307	351.38
2265.029	340.38
2280.694	321.38
2296.302	310.38
2311.854	300.38
2327.351	301.38
2342.792	273.38
2358.178	285.38
2373.508	282.38
2388.785	273.38
2404.007	267.38
2419.174	263.38
2434.289	259.38
2449.349	246.38
2464.356	233.38
2479.311	230.38
2494.213	226.38
2509.062	220.38
2523.859	218.38
2538.605	204.38
2553.299	200.38
2567.941	198.38
2582.533	193.38
2597.073	187.38
2611.564	172.38
2626.004	164.38
2640.394	158.38
2654.734	146.38
2669.025	132.38
2683.266	127.38
2697.458	119.38
2711.602	92.38
2725.697	92.38
2739.744	94.38
2753.743	95.38
2767.695	105.38
2781.598	85.38
2795.455	81.38
2809.264	72.38
2823.026	80.38
2836.742	73.38
2850.412	66.38
2864.035	59.38
2877.613	57.38
2891.145	44.38
2904.631	39.38
2918.073	31.38
2931.469	28.38
2944.821	19.38
2958.128	21.38
2971.39	18.38
2984.609	4.38
2997.784	14.38
3010.915	4.38
3024.002	-5.62
3037.046	-9.62
3050.048	-12.62
3063.006	-24.62
3075.922	-19.62
3088.795	-27.62
3101.627	-23.62
3114.416	-18.62
3127.163	-29.62
3139.869	-26.62
3152.533	-35.62
3165.157	-34.62
3177.739	-43.62
3190.28	-46.62
3202.781	-50.62
3215.241	-49.62
3227.661	-55.62
3240.041	-55.62
3252.382	-52.62
3264.682	-60.62
3276.943	-63.62
3289.165	-62.62
3301.348	-65.62
3313.492	-66.62
3325.597	-73.62
3337.663	-72.62
3349.691	-70.62
3361.681	-72.62
3373.633	-67.62
3385.547	-74.62
3397.424	-71.62
3409.263	-77.62
3421.065	-71.62
3432.829	-78.62
3444.557	-78.62
3456.247	-78.62
3467.902	-89.62
3479.519	-83.62
3491.101	-82.62
3502.646	-81.62
3514.155	-83.62
3525.629	-85.62
3537.067	-83.62
3548.469	-86.62
3559.837	-87.62
3571.169	-91.62
3582.466	-85.62
3593.728	-86.62
3604.956	-90.62
3616.149	-94.62
3627.307	-97.62
3638.432	-95.62
3649.523	-95.62
3660.579	-93.62
3671.602	-88.62
3682.591	-93.62
3693.547	-87.62
3704.47	-98.62
3715.359	-97.62
3726.216	-97.62
3737.039	-91.62
3747.83	-98.62
3758.589	-95.62
3769.315	-95.62
3780.008	-103.62
3790.67	-96.62
3801.299	-94.62
3811.897	-101.62
3822.463	-98.62
3832.998	-92.62
3843.501	-92.62
3853.973	-95.62
3864.414	-92.62
3874.823	-51.62
3885.202	72.38
3895.55	-74.62
3905.868	-95.62
3916.155	-95.62
3926.411	-93.62
3936.638	-97.62
3946.834	-98.62
3957	-98.62
3967.137	-100.62
3977.244	-99.62
3987.321	-95.62
3997.369	-99.62
4007.388	-97.62
4017.377	-90.62
4027.338	-93.62
4037.269	-92.62
4047.172	-92.62
4057.046	-91.62
4066.891	-99.62
4076.708	-101.62
4086.497	-95.62
4096.257	-98.62
4105.989	39.38
4115.694	28.38
4125.37	-95.62
4135.019	-100.62
4142.237	-105.62