File: Data/Raman/2017-08-29 - Alluminum 2/Aug 29 2017 - Aluminum 2/EC 11 1_RamanShift_2.txt
Data from EC 11 1_RamanShift_2.txt Node

Date: Tue Aug 29 12:20:37 IDT 2017
User: aro
Spectrometer: QEPB0276
Trigger mode: 0
Integration Time (sec): 3.000000E1
Scans to average: 1
Electric dark correction enabled: true
Nonlinearity correction enabled: false
Boxcar width: 0
XAxis mode: Raman Shifts
Number of Pixels in Spectrum: 1044
>>>>>Begin Spectral Data<<<<<
160.701	9.38
184.826	1119.38
208.845	5262.38
232.758	5861.38
256.565	6253.38
280.267	6541.38
303.865	6767.38
327.359	6925.38
350.751	6969.38
374.04	7109.38
397.228	7147.38
420.315	8237.38
443.302	7131.38
466.189	6917.38
488.978	6825.38
511.668	6292.38
534.261	5811.38
556.756	5662.38
579.155	5584.38
601.459	5491.38
623.667	5360.38
645.781	5563.38
667.8	5211.38
689.726	5143.38
711.56	4989.38
733.301	4937.38
754.951	5056.38
776.509	4954.38
797.977	4985.38
819.355	4831.38
840.644	4774.38
861.844	4739.38
882.955	4626.38
903.979	4466.38
924.916	4445.38
945.766	4444.38
966.529	4318.38
987.208	4160.38
1007.801	4253.38
1028.309	4316.38
1048.734	4205.38
1069.075	4065.38
1089.333	4100.38
1109.509	4096.38
1129.602	3875.38
1149.614	3807.38
1169.545	3859.38
1189.395	3770.38
1209.165	3720.38
1228.856	3785.38
1248.467	3728.38
1268	3487.38
1287.455	3386.38
1306.832	3415.38
1326.132	3320.38
1345.354	3058.38
1364.501	3011.38
1383.572	3111.38
1402.567	3003.38
1421.487	2851.38
1440.333	2879.38
1459.104	2802.38
1477.802	2637.38
1496.426	2638.38
1514.978	2774.38
1533.457	2767.38
1551.864	2654.38
1570.199	2562.38
1588.464	2506.38
1606.657	2372.38
1624.78	2254.38
1642.834	2228.38
1660.817	2254.38
1678.732	2165.38
1696.577	2049.38
1714.355	2167.38
1732.064	2100.38
1749.705	1905.38
1767.28	1749.38
1784.787	1674.38
1802.228	1785.38
1819.603	1753.38
1836.913	1655.38
1854.156	1628.38
1871.335	1617.38
1888.449	1589.38
1905.499	1532.38
1922.485	1573.38
1939.408	1621.38
1956.267	1582.38
1973.063	1467.38
1989.797	1365.38
2006.469	1331.38
2023.078	1278.38
2039.627	1198.38
2056.114	1172.38
2072.54	1188.38
2088.906	1205.38
2105.211	1194.38
2121.457	1124.38
2137.643	1107.38
2153.77	1057.38
2169.838	1024.38
2185.848	966.38
2201.799	940.38
2217.693	933.38
2233.529	930.38
2249.307	883.38
2265.029	845.38
2280.694	802.38
2296.302	787.38
2311.854	746.38
2327.351	733.38
2342.792	698.38
2358.178	703.38
2373.508	699.38
2388.785	702.38
2404.007	682.38
2419.174	662.38
2434.289	633.38
2449.349	609.38
2464.356	578.38
2479.311	564.38
2494.213	555.38
2509.062	557.38
2523.859	547.38
2538.605	524.38
2553.299	527.38
2567.941	520.38
2582.533	505.38
2597.073	494.38
2611.564	455.38
2626.004	440.38
2640.394	416.38
2654.734	380.38
2669.025	362.38
2683.266	336.38
2697.458	300.38
2711.602	281.38
2725.697	251.38
2739.744	238.38
2753.743	251.38
2767.695	253.38
2781.598	233.38
2795.455	236.38
2809.264	220.38
2823.026	214.38
2836.742	210.38
2850.412	203.38
2864.035	194.38
2877.613	174.38
2891.145	162.38
2904.631	144.38
2918.073	129.38
2931.469	119.38
2944.821	102.38
2958.128	85.38
2971.39	76.38
2984.609	62.38
2997.784	73.38
3010.915	51.38
3024.002	42.38
3037.046	29.38
3050.048	22.38
3063.006	12.38
3075.922	12.38
3088.795	-0.62
3101.627	6.38
3114.416	-5.62
3127.163	-6.62
3139.869	-11.62
3152.533	-22.62
3165.157	-35.62
3177.739	-31.62
3190.28	-40.62
3202.781	-53.62
3215.241	-66.62
3227.661	-67.62
3240.041	-68.62
3252.382	-76.62
3264.682	-81.62
3276.943	-82.62
3289.165	-80.62
3301.348	-88.62
3313.492	-90.62
3325.597	-98.62
3337.663	-101.62
3349.691	-98.62
3361.681	-104.62
3373.633	-103.62
3385.547	-100.62
3397.424	-105.62
3409.263	-117.62
3421.065	-117.62
3432.829	-119.62
3444.557	-116.62
3456.247	-122.62
3467.902	-128.62
3479.519	-119.62
3491.101	-126.62
3502.646	-123.62
3514.155	-127.62
3525.629	-135.62
3537.067	-129.62
3548.469	-135.62
3559.837	-130.62
3571.169	-132.62
3582.466	-136.62
3593.728	-136.62
3604.956	-135.62
3616.149	-147.62
3627.307	-146.62
3638.432	-140.62
3649.523	-148.62
3660.579	-148.62
3671.602	-144.62
3682.591	-144.62
3693.547	-139.62
3704.47	-147.62
3715.359	-141.62
3726.216	-151.62
3737.039	-147.62
3747.83	-144.62
3758.589	-149.62
3769.315	-149.62
3780.008	-156.62
3790.67	-147.62
3801.299	-151.62
3811.897	-153.62
3822.463	-150.62
3832.998	-147.62
3843.501	-144.62
3853.973	-145.62
3864.414	-144.62
3874.823	-115.62
3885.202	-22.62
3895.55	-133.62
3905.868	-153.62
3916.155	-147.62
3926.411	-150.62
3936.638	-150.62
3946.834	-150.62
3957	-149.62
3967.137	-146.62
3977.244	-151.62
3987.321	-146.62
3997.369	-150.62
4007.388	-140.62
4017.377	-140.62
4027.338	-139.62
4037.269	-147.62
4047.172	-144.62
4057.046	-145.62
4066.891	-152.62
4076.708	-147.62
4086.497	-153.62
4096.257	-156.62
4105.989	-14.62
4115.694	-14.62
4125.37	-148.62
4135.019	-156.62
4142.237	-161.62