File: Data/Raman/2017-08-29 - Alluminum 2/Aug 29 2017 - Aluminum 2/EC 110 3_RamanShift_3.txt
Data from EC 110 3_RamanShift_3.txt Node

Date: Tue Aug 29 12:34:07 IDT 2017
User: aro
Spectrometer: QEPB0276
Trigger mode: 0
Integration Time (sec): 3.000000E1
Scans to average: 1
Electric dark correction enabled: true
Nonlinearity correction enabled: false
Boxcar width: 0
XAxis mode: Raman Shifts
Number of Pixels in Spectrum: 1044
>>>>>Begin Spectral Data<<<<<
160.701	28.25
184.826	453.25
208.845	1966.25
232.758	2073.25
256.565	2176.25
280.267	2316.25
303.865	2469.25
327.359	2590.25
350.751	2675.25
374.04	2929.25
397.228	2980.25
420.315	4539.25
443.302	3046.25
466.189	2800.25
488.978	2675.25
511.668	2069.25
534.261	1499.25
556.756	1350.25
579.155	1304.25
601.459	1280.25
623.667	1224.25
645.781	1633.25
667.8	1156.25
689.726	1068.25
711.56	1038.25
733.301	1044.25
754.951	1197.25
776.509	1139.25
797.977	1229.25
819.355	1173.25
840.644	1101.25
861.844	988.25
882.955	935.25
903.979	907.25
924.916	888.25
945.766	876.25
966.529	856.25
987.208	839.25
1007.801	858.25
1028.309	892.25
1048.734	913.25
1069.075	900.25
1089.333	896.25
1109.509	845.25
1129.602	803.25
1149.614	806.25
1169.545	839.25
1189.395	816.25
1209.165	807.25
1228.856	838.25
1248.467	813.25
1268	749.25
1287.455	717.25
1306.832	754.25
1326.132	732.25
1345.354	709.25
1364.501	700.25
1383.572	689.25
1402.567	659.25
1421.487	641.25
1440.333	658.25
1459.104	656.25
1477.802	626.25
1496.426	647.25
1514.978	683.25
1533.457	660.25
1551.864	631.25
1570.199	607.25
1588.464	599.25
1606.657	571.25
1624.78	558.25
1642.834	573.25
1660.817	576.25
1678.732	568.25
1696.577	549.25
1714.355	554.25
1732.064	529.25
1749.705	481.25
1767.28	465.25
1784.787	463.25
1802.228	471.25
1819.603	440.25
1836.913	419.25
1854.156	413.25
1871.335	418.25
1888.449	426.25
1905.499	412.25
1922.485	439.25
1939.408	448.25
1956.267	418.25
1973.063	394.25
1989.797	358.25
2006.469	355.25
2023.078	349.25
2039.627	331.25
2056.114	325.25
2072.54	320.25
2088.906	341.25
2105.211	332.25
2121.457	320.25
2137.643	297.25
2153.77	295.25
2169.838	271.25
2185.848	258.25
2201.799	260.25
2217.693	255.25
2233.529	255.25
2249.307	240.25
2265.029	236.25
2280.694	223.25
2296.302	211.25
2311.854	203.25
2327.351	210.25
2342.792	190.25
2358.178	188.25
2373.508	193.25
2388.785	189.25
2404.007	183.25
2419.174	174.25
2434.289	178.25
2449.349	165.25
2464.356	152.25
2479.311	153.25
2494.213	150.25
2509.062	147.25
2523.859	146.25
2538.605	146.25
2553.299	147.25
2567.941	142.25
2582.533	138.25
2597.073	127.25
2611.564	127.25
2626.004	111.25
2640.394	114.25
2654.734	95.25
2669.025	91.25
2683.266	88.25
2697.458	80.25
2711.602	64.25
2725.697	61.25
2739.744	63.25
2753.743	60.25
2767.695	68.25
2781.598	53.25
2795.455	57.25
2809.264	45.25
2823.026	56.25
2836.742	55.25
2850.412	47.25
2864.035	39.25
2877.613	38.25
2891.145	31.25
2904.631	27.25
2918.073	20.25
2931.469	13.25
2944.821	13.25
2958.128	11.25
2971.39	2.25
2984.609	-3.75
2997.784	3.25
3010.915	-3.75
3024.002	-8.75
3037.046	-11.75
3050.048	-13.75
3063.006	-23.75
3075.922	-25.75
3088.795	-22.75
3101.627	-19.75
3114.416	-24.75
3127.163	-31.75
3139.869	-22.75
3152.533	-29.75
3165.157	-34.75
3177.739	-36.75
3190.28	-40.75
3202.781	-45.75
3215.241	-42.75
3227.661	-47.75
3240.041	-46.75
3252.382	-43.75
3264.682	-43.75
3276.943	-51.75
3289.165	-50.75
3301.348	-52.75
3313.492	-52.75
3325.597	-63.75
3337.663	-63.75
3349.691	-63.75
3361.681	-58.75
3373.633	-59.75
3385.547	-59.75
3397.424	-61.75
3409.263	-62.75
3421.065	-64.75
3432.829	-60.75
3444.557	-60.75
3456.247	-63.75
3467.902	-70.75
3479.519	-64.75
3491.101	-65.75
3502.646	-66.75
3514.155	-64.75
3525.629	-76.75
3537.067	-72.75
3548.469	-74.75
3559.837	-67.75
3571.169	-75.75
3582.466	-72.75
3593.728	-70.75
3604.956	-74.75
3616.149	-82.75
3627.307	-77.75
3638.432	-71.75
3649.523	-79.75
3660.579	-79.75
3671.602	-76.75
3682.591	-81.75
3693.547	-73.75
3704.47	-80.75
3715.359	-70.75
3726.216	-81.75
3737.039	-77.75
3747.83	-80.75
3758.589	-82.75
3769.315	-80.75
3780.008	-90.75
3790.67	-75.75
3801.299	-77.75
3811.897	-82.75
3822.463	-77.75
3832.998	-74.75
3843.501	-74.75
3853.973	-75.75
3864.414	-75.75
3874.823	-39.75
3885.202	53.25
3895.55	-66.75
3905.868	-85.75
3916.155	-80.75
3926.411	-80.75
3936.638	-85.75
3946.834	-85.75
3957	-81.75
3967.137	-79.75
3977.244	-78.75
3987.321	-76.75
3997.369	-80.75
4007.388	-71.75
4017.377	-78.75
4027.338	-75.75
4037.269	-81.75
4047.172	-77.75
4057.046	-80.75
4066.891	-79.75
4076.708	-79.75
4086.497	-81.75
4096.257	-82.75
4105.989	43.25
4115.694	28.25
4125.37	-77.75
4135.019	-80.75
4142.237	-85.75