File: Data/Raman/2017-08-29 - Alluminum 2/Aug 29 2017 - Aluminum 2/EC 12 2_RamanShift_2.txt
Data from EC 12 2_RamanShift_2.txt Node

Date: Tue Aug 29 12:15:37 IDT 2017
User: aro
Spectrometer: QEPB0276
Trigger mode: 0
Integration Time (sec): 3.000000E1
Scans to average: 1
Electric dark correction enabled: true
Nonlinearity correction enabled: false
Boxcar width: 0
XAxis mode: Raman Shifts
Number of Pixels in Spectrum: 1044
>>>>>Begin Spectral Data<<<<<
160.701	34.12
184.826	483.12
208.845	2175.12
232.758	2363.12
256.565	2529.12
280.267	2725.12
303.865	2870.12
327.359	2988.12
350.751	3090.12
374.04	3336.12
397.228	3419.12
420.315	4889.12
443.302	3465.12
466.189	3179.12
488.978	3074.12
511.668	2434.12
534.261	1853.12
556.756	1692.12
579.155	1656.12
601.459	1610.12
623.667	1541.12
645.781	1931.12
667.8	1457.12
689.726	1353.12
711.56	1335.12
733.301	1322.12
754.951	1498.12
776.509	1419.12
797.977	1511.12
819.355	1441.12
840.644	1377.12
861.844	1265.12
882.955	1192.12
903.979	1132.12
924.916	1147.12
945.766	1122.12
966.529	1103.12
987.208	1052.12
1007.801	1086.12
1028.309	1139.12
1048.734	1153.12
1069.075	1126.12
1089.333	1099.12
1109.509	1075.12
1129.602	1010.12
1149.614	990.12
1169.545	1022.12
1189.395	996.12
1209.165	1008.12
1228.856	1032.12
1248.467	1000.12
1268	922.12
1287.455	889.12
1306.832	919.12
1326.132	897.12
1345.354	834.12
1364.501	817.12
1383.572	822.12
1402.567	792.12
1421.487	757.12
1440.333	774.12
1459.104	767.12
1477.802	733.12
1496.426	728.12
1514.978	777.12
1533.457	752.12
1551.864	733.12
1570.199	699.12
1588.464	685.12
1606.657	653.12
1624.78	620.12
1642.834	624.12
1660.817	656.12
1678.732	636.12
1696.577	618.12
1714.355	614.12
1732.064	595.12
1749.705	528.12
1767.28	503.12
1784.787	483.12
1802.228	512.12
1819.603	491.12
1836.913	461.12
1854.156	446.12
1871.335	457.12
1888.449	465.12
1905.499	435.12
1922.485	457.12
1939.408	472.12
1956.267	460.12
1973.063	405.12
1989.797	377.12
2006.469	373.12
2023.078	359.12
2039.627	335.12
2056.114	337.12
2072.54	352.12
2088.906	355.12
2105.211	340.12
2121.457	324.12
2137.643	314.12
2153.77	306.12
2169.838	293.12
2185.848	279.12
2201.799	268.12
2217.693	268.12
2233.529	253.12
2249.307	243.12
2265.029	229.12
2280.694	227.12
2296.302	215.12
2311.854	200.12
2327.351	216.12
2342.792	194.12
2358.178	189.12
2373.508	190.12
2388.785	193.12
2404.007	182.12
2419.174	181.12
2434.289	177.12
2449.349	153.12
2464.356	153.12
2479.311	141.12
2494.213	144.12
2509.062	150.12
2523.859	133.12
2538.605	144.12
2553.299	140.12
2567.941	131.12
2582.533	137.12
2597.073	126.12
2611.564	116.12
2626.004	113.12
2640.394	106.12
2654.734	93.12
2669.025	82.12
2683.266	82.12
2697.458	76.12
2711.602	59.12
2725.697	50.12
2739.744	53.12
2753.743	55.12
2767.695	70.12
2781.598	51.12
2795.455	46.12
2809.264	35.12
2823.026	48.12
2836.742	44.12
2850.412	40.12
2864.035	29.12
2877.613	30.12
2891.145	23.12
2904.631	17.12
2918.073	12.12
2931.469	11.12
2944.821	9.12
2958.128	4.12
2971.39	0.12
2984.609	1.12
2997.784	-1.88
3010.915	-11.88
3024.002	-12.88
3037.046	-16.88
3050.048	-24.88
3063.006	-30.88
3075.922	-25.88
3088.795	-31.88
3101.627	-32.88
3114.416	-29.88
3127.163	-36.88
3139.869	-36.88
3152.533	-38.88
3165.157	-39.88
3177.739	-42.88
3190.28	-44.88
3202.781	-51.88
3215.241	-55.88
3227.661	-51.88
3240.041	-55.88
3252.382	-58.88
3264.682	-56.88
3276.943	-63.88
3289.165	-58.88
3301.348	-66.88
3313.492	-67.88
3325.597	-72.88
3337.663	-68.88
3349.691	-72.88
3361.681	-70.88
3373.633	-65.88
3385.547	-66.88
3397.424	-68.88
3409.263	-74.88
3421.065	-71.88
3432.829	-74.88
3444.557	-73.88
3456.247	-75.88
3467.902	-78.88
3479.519	-68.88
3491.101	-73.88
3502.646	-74.88
3514.155	-77.88
3525.629	-75.88
3537.067	-79.88
3548.469	-80.88
3559.837	-73.88
3571.169	-79.88
3582.466	-77.88
3593.728	-76.88
3604.956	-83.88
3616.149	-90.88
3627.307	-84.88
3638.432	-83.88
3649.523	-91.88
3660.579	-90.88
3671.602	-83.88
3682.591	-87.88
3693.547	-86.88
3704.47	-86.88
3715.359	-86.88
3726.216	-86.88
3737.039	-88.88
3747.83	-90.88
3758.589	-88.88
3769.315	-87.88
3780.008	-94.88
3790.67	-87.88
3801.299	-86.88
3811.897	-86.88
3822.463	-91.88
3832.998	-91.88
3843.501	-82.88
3853.973	-79.88
3864.414	-79.88
3874.823	-46.88
3885.202	71.12
3895.55	-62.88
3905.868	-84.88
3916.155	-85.88
3926.411	-90.88
3936.638	-91.88
3946.834	-87.88
3957	-87.88
3967.137	-87.88
3977.244	-87.88
3987.321	-85.88
3997.369	-89.88
4007.388	-83.88
4017.377	-85.88
4027.338	-83.88
4037.269	-87.88
4047.172	-83.88
4057.046	-84.88
4066.891	-90.88
4076.708	-84.88
4086.497	-86.88
4096.257	-88.88
4105.989	48.12
4115.694	35.12
4125.37	-88.88
4135.019	-89.88
4142.237	-94.88