File: Data/Raman/2017-08-29 - Alluminum 2/Aug 29 2017 - Aluminum 2/EC 110 4_RamanShift_3.txt
Data from EC 110 4_RamanShift_3.txt Node

Date: Tue Aug 29 12:36:07 IDT 2017
User: aro
Spectrometer: QEPB0276
Trigger mode: 0
Integration Time (sec): 3.000000E1
Scans to average: 1
Electric dark correction enabled: true
Nonlinearity correction enabled: false
Boxcar width: 0
XAxis mode: Raman Shifts
Number of Pixels in Spectrum: 1044
>>>>>Begin Spectral Data<<<<<
160.701	28.88
184.826	390.88
208.845	1714.88
232.758	1778.88
256.565	1892.88
280.267	1959.88
303.865	2079.88
327.359	2159.88
350.751	2260.88
374.04	2494.88
397.228	2525.88
420.315	3924.88
443.302	2596.88
466.189	2334.88
488.978	2254.88
511.668	1708.88
534.261	1207.88
556.756	1056.88
579.155	1027.88
601.459	1004.88
623.667	949.88
645.781	1320.88
667.8	908.88
689.726	812.88
711.56	782.88
733.301	802.88
754.951	950.88
776.509	878.88
797.977	955.88
819.355	908.88
840.644	847.88
861.844	746.88
882.955	687.88
903.979	657.88
924.916	654.88
945.766	645.88
966.529	638.88
987.208	607.88
1007.801	628.88
1028.309	668.88
1048.734	681.88
1069.075	679.88
1089.333	658.88
1109.509	625.88
1129.602	588.88
1149.614	590.88
1169.545	618.88
1189.395	612.88
1209.165	594.88
1228.856	613.88
1248.467	607.88
1268	545.88
1287.455	525.88
1306.832	541.88
1326.132	529.88
1345.354	518.88
1364.501	512.88
1383.572	502.88
1402.567	473.88
1421.487	452.88
1440.333	468.88
1459.104	489.88
1477.802	469.88
1496.426	490.88
1514.978	501.88
1533.457	477.88
1551.864	458.88
1570.199	433.88
1588.464	424.88
1606.657	424.88
1624.78	397.88
1642.834	416.88
1660.817	422.88
1678.732	412.88
1696.577	413.88
1714.355	404.88
1732.064	374.88
1749.705	349.88
1767.28	323.88
1784.787	323.88
1802.228	335.88
1819.603	312.88
1836.913	292.88
1854.156	302.88
1871.335	298.88
1888.449	295.88
1905.499	291.88
1922.485	312.88
1939.408	316.88
1956.267	297.88
1973.063	265.88
1989.797	241.88
2006.469	244.88
2023.078	239.88
2039.627	221.88
2056.114	223.88
2072.54	227.88
2088.906	239.88
2105.211	233.88
2121.457	214.88
2137.643	200.88
2153.77	195.88
2169.838	172.88
2185.848	163.88
2201.799	166.88
2217.693	160.88
2233.529	165.88
2249.307	152.88
2265.029	141.88
2280.694	137.88
2296.302	135.88
2311.854	121.88
2327.351	128.88
2342.792	111.88
2358.178	109.88
2373.508	114.88
2388.785	104.88
2404.007	102.88
2419.174	103.88
2434.289	97.88
2449.349	87.88
2464.356	80.88
2479.311	82.88
2494.213	78.88
2509.062	86.88
2523.859	78.88
2538.605	72.88
2553.299	68.88
2567.941	76.88
2582.533	71.88
2597.073	63.88
2611.564	64.88
2626.004	46.88
2640.394	56.88
2654.734	42.88
2669.025	40.88
2683.266	36.88
2697.458	24.88
2711.602	21.88
2725.697	19.88
2739.744	34.88
2753.743	24.88
2767.695	25.88
2781.598	19.88
2795.455	19.88
2809.264	10.88
2823.026	13.88
2836.742	12.88
2850.412	7.88
2864.035	6.88
2877.613	4.88
2891.145	-1.12
2904.631	-5.12
2918.073	-13.12
2931.469	-7.12
2944.821	-11.12
2958.128	-19.12
2971.39	-19.12
2984.609	-21.12
2997.784	-16.12
3010.915	-21.12
3024.002	-25.12
3037.046	-25.12
3050.048	-35.12
3063.006	-36.12
3075.922	-36.12
3088.795	-43.12
3101.627	-32.12
3114.416	-37.12
3127.163	-37.12
3139.869	-40.12
3152.533	-44.12
3165.157	-49.12
3177.739	-48.12
3190.28	-48.12
3202.781	-52.12
3215.241	-58.12
3227.661	-54.12
3240.041	-55.12
3252.382	-54.12
3264.682	-53.12
3276.943	-58.12
3289.165	-55.12
3301.348	-61.12
3313.492	-61.12
3325.597	-64.12
3337.663	-63.12
3349.691	-63.12
3361.681	-60.12
3373.633	-60.12
3385.547	-63.12
3397.424	-53.12
3409.263	-59.12
3421.065	-60.12
3432.829	-61.12
3444.557	-60.12
3456.247	-64.12
3467.902	-71.12
3479.519	-63.12
3491.101	-66.12
3502.646	-67.12
3514.155	-67.12
3525.629	-75.12
3537.067	-72.12
3548.469	-74.12
3559.837	-66.12
3571.169	-72.12
3582.466	-65.12
3593.728	-65.12
3604.956	-69.12
3616.149	-78.12
3627.307	-76.12
3638.432	-75.12
3649.523	-80.12
3660.579	-72.12
3671.602	-72.12
3682.591	-76.12
3693.547	-75.12
3704.47	-81.12
3715.359	-73.12
3726.216	-77.12
3737.039	-77.12
3747.83	-76.12
3758.589	-76.12
3769.315	-79.12
3780.008	-83.12
3790.67	-79.12
3801.299	-80.12
3811.897	-78.12
3822.463	-80.12
3832.998	-71.12
3843.501	-70.12
3853.973	-69.12
3864.414	-77.12
3874.823	-33.12
3885.202	66.88
3895.55	-61.12
3905.868	-76.12
3916.155	-72.12
3926.411	-73.12
3936.638	-79.12
3946.834	-75.12
3957	-74.12
3967.137	-79.12
3977.244	-81.12
3987.321	-74.12
3997.369	-78.12
4007.388	-71.12
4017.377	-75.12
4027.338	-75.12
4037.269	-75.12
4047.172	-79.12
4057.046	-72.12
4066.891	-80.12
4076.708	-77.12
4086.497	-79.12
4096.257	-76.12
4105.989	42.88
4115.694	25.88
4125.37	-78.12
4135.019	-76.12
4142.237	-79.12