File: Data/Raman/2017-08-29 - Alluminum 2/Aug 29 2017 - Aluminum 2/EC 110 1_RamanShift_2.txt
Data from EC 110 1_RamanShift_2.txt Node

Date: Tue Aug 29 12:08:37 IDT 2017
User: aro
Spectrometer: QEPB0276
Trigger mode: 0
Integration Time (sec): 3.000000E1
Scans to average: 1
Electric dark correction enabled: true
Nonlinearity correction enabled: false
Boxcar width: 0
XAxis mode: Raman Shifts
Number of Pixels in Spectrum: 1044
>>>>>Begin Spectral Data<<<<<
160.701	37.88
184.826	480.88
208.845	2090.88
232.758	2261.88
256.565	2442.88
280.267	2616.88
303.865	2811.88
327.359	2978.88
350.751	3127.88
374.04	3440.88
397.228	3497.88
420.315	5588.88
443.302	3631.88
466.189	3234.88
488.978	3087.88
511.668	2303.88
534.261	1542.88
556.756	1329.88
579.155	1303.88
601.459	1267.88
623.667	1191.88
645.781	1737.88
667.8	1104.88
689.726	970.88
711.56	935.88
733.301	951.88
754.951	1176.88
776.509	1068.88
797.977	1205.88
819.355	1128.88
840.644	1043.88
861.844	927.88
882.955	811.88
903.979	777.88
924.916	761.88
945.766	762.88
966.529	740.88
987.208	722.88
1007.801	736.88
1028.309	771.88
1048.734	811.88
1069.075	809.88
1089.333	786.88
1109.509	726.88
1129.602	681.88
1149.614	686.88
1169.545	725.88
1189.395	723.88
1209.165	713.88
1228.856	725.88
1248.467	707.88
1268	630.88
1287.455	601.88
1306.832	625.88
1326.132	604.88
1345.354	594.88
1364.501	579.88
1383.572	571.88
1402.567	537.88
1421.487	525.88
1440.333	540.88
1459.104	551.88
1477.802	520.88
1496.426	523.88
1514.978	563.88
1533.457	549.88
1551.864	507.88
1570.199	497.88
1588.464	484.88
1606.657	470.88
1624.78	456.88
1642.834	465.88
1660.817	478.88
1678.732	466.88
1696.577	479.88
1714.355	446.88
1732.064	423.88
1749.705	383.88
1767.28	366.88
1784.787	363.88
1802.228	371.88
1819.603	359.88
1836.913	334.88
1854.156	331.88
1871.335	328.88
1888.449	331.88
1905.499	311.88
1922.485	339.88
1939.408	339.88
1956.267	329.88
1973.063	299.88
1989.797	266.88
2006.469	271.88
2023.078	265.88
2039.627	244.88
2056.114	245.88
2072.54	251.88
2088.906	259.88
2105.211	247.88
2121.457	234.88
2137.643	212.88
2153.77	219.88
2169.838	198.88
2185.848	193.88
2201.799	179.88
2217.693	184.88
2233.529	183.88
2249.307	184.88
2265.029	167.88
2280.694	155.88
2296.302	141.88
2311.854	141.88
2327.351	138.88
2342.792	128.88
2358.178	125.88
2373.508	121.88
2388.785	119.88
2404.007	118.88
2419.174	117.88
2434.289	114.88
2449.349	93.88
2464.356	87.88
2479.311	97.88
2494.213	88.88
2509.062	92.88
2523.859	85.88
2538.605	84.88
2553.299	85.88
2567.941	88.88
2582.533	72.88
2597.073	62.88
2611.564	64.88
2626.004	57.88
2640.394	61.88
2654.734	50.88
2669.025	31.88
2683.266	43.88
2697.458	37.88
2711.602	20.88
2725.697	19.88
2739.744	19.88
2753.743	18.88
2767.695	26.88
2781.598	13.88
2795.455	15.88
2809.264	5.88
2823.026	16.88
2836.742	18.88
2850.412	6.88
2864.035	9.88
2877.613	-0.12
2891.145	-0.12
2904.631	-13.12
2918.073	-17.12
2931.469	-20.12
2944.821	-23.12
2958.128	-29.12
2971.39	-31.12
2984.609	-33.12
2997.784	-26.12
3010.915	-32.12
3024.002	-40.12
3037.046	-41.12
3050.048	-44.12
3063.006	-48.12
3075.922	-52.12
3088.795	-49.12
3101.627	-47.12
3114.416	-47.12
3127.163	-51.12
3139.869	-49.12
3152.533	-56.12
3165.157	-60.12
3177.739	-64.12
3190.28	-60.12
3202.781	-64.12
3215.241	-68.12
3227.661	-68.12
3240.041	-64.12
3252.382	-67.12
3264.682	-70.12
3276.943	-75.12
3289.165	-67.12
3301.348	-73.12
3313.492	-77.12
3325.597	-78.12
3337.663	-82.12
3349.691	-78.12
3361.681	-79.12
3373.633	-81.12
3385.547	-81.12
3397.424	-73.12
3409.263	-78.12
3421.065	-81.12
3432.829	-80.12
3444.557	-79.12
3456.247	-79.12
3467.902	-86.12
3479.519	-77.12
3491.101	-86.12
3502.646	-81.12
3514.155	-83.12
3525.629	-92.12
3537.067	-82.12
3548.469	-91.12
3559.837	-83.12
3571.169	-89.12
3582.466	-88.12
3593.728	-87.12
3604.956	-89.12
3616.149	-97.12
3627.307	-91.12
3638.432	-94.12
3649.523	-93.12
3660.579	-91.12
3671.602	-91.12
3682.591	-93.12
3693.547	-89.12
3704.47	-97.12
3715.359	-96.12
3726.216	-100.12
3737.039	-101.12
3747.83	-96.12
3758.589	-103.12
3769.315	-98.12
3780.008	-106.12
3790.67	-96.12
3801.299	-95.12
3811.897	-93.12
3822.463	-90.12
3832.998	-87.12
3843.501	-94.12
3853.973	-94.12
3864.414	-90.12
3874.823	-48.12
3885.202	99.88
3895.55	-69.12
3905.868	-92.12
3916.155	-97.12
3926.411	-100.12
3936.638	-102.12
3946.834	-94.12
3957	-91.12
3967.137	-91.12
3977.244	-98.12
3987.321	-97.12
3997.369	-94.12
4007.388	-95.12
4017.377	-94.12
4027.338	-91.12
4037.269	-96.12
4047.172	-94.12
4057.046	-91.12
4066.891	-96.12
4076.708	-94.12
4086.497	-95.12
4096.257	-98.12
4105.989	61.88
4115.694	39.88
4125.37	-91.12
4135.019	-96.12
4142.237	-101.12