File: Data/Raman/2017-08-29 - Alluminum 2/Aug 29 2017 - Aluminum 2/EC 12 5_RamanShift_3.txt
Data from EC 12 5_RamanShift_3.txt Node

Date: Tue Aug 29 12:54:37 IDT 2017
User: aro
Spectrometer: QEPB0276
Trigger mode: 0
Integration Time (sec): 3.000000E1
Scans to average: 1
Electric dark correction enabled: true
Nonlinearity correction enabled: false
Boxcar width: 0
XAxis mode: Raman Shifts
Number of Pixels in Spectrum: 1044
>>>>>Begin Spectral Data<<<<<
160.701	25.12
184.826	483.12
208.845	2135.12
232.758	2358.12
256.565	2537.12
280.267	2703.12
303.865	2866.12
327.359	2917.12
350.751	3005.12
374.04	3177.12
397.228	3216.12
420.315	4305.12
443.302	3290.12
466.189	3118.12
488.978	3006.12
511.668	2552.12
534.261	2156.12
556.756	2026.12
579.155	2012.12
601.459	1992.12
623.667	1917.12
645.781	2198.12
667.8	1879.12
689.726	1799.12
711.56	1764.12
733.301	1772.12
754.951	1891.12
776.509	1855.12
797.977	1923.12
819.355	1880.12
840.644	1837.12
861.844	1767.12
882.955	1702.12
903.979	1658.12
924.916	1669.12
945.766	1673.12
966.529	1632.12
987.208	1573.12
1007.801	1628.12
1028.309	1661.12
1048.734	1654.12
1069.075	1629.12
1089.333	1635.12
1109.509	1619.12
1129.602	1525.12
1149.614	1536.12
1169.545	1549.12
1189.395	1499.12
1209.165	1534.12
1228.856	1552.12
1248.467	1525.12
1268	1415.12
1287.455	1385.12
1306.832	1423.12
1326.132	1393.12
1345.354	1269.12
1364.501	1268.12
1383.572	1310.12
1402.567	1256.12
1421.487	1201.12
1440.333	1233.12
1459.104	1217.12
1477.802	1128.12
1496.426	1143.12
1514.978	1203.12
1533.457	1212.12
1551.864	1159.12
1570.199	1123.12
1588.464	1112.12
1606.657	1052.12
1624.78	994.12
1642.834	1005.12
1660.817	1007.12
1678.732	990.12
1696.577	947.12
1714.355	990.12
1732.064	957.12
1749.705	873.12
1767.28	802.12
1784.787	784.12
1802.228	841.12
1819.603	819.12
1836.913	763.12
1854.156	750.12
1871.335	739.12
1888.449	755.12
1905.499	728.12
1922.485	746.12
1939.408	773.12
1956.267	763.12
1973.063	713.12
1989.797	655.12
2006.469	636.12
2023.078	624.12
2039.627	574.12
2056.114	567.12
2072.54	592.12
2088.906	609.12
2105.211	606.12
2121.457	575.12
2137.643	551.12
2153.77	551.12
2169.838	501.12
2185.848	480.12
2201.799	473.12
2217.693	479.12
2233.529	475.12
2249.307	455.12
2265.029	444.12
2280.694	419.12
2296.302	404.12
2311.854	401.12
2327.351	407.12
2342.792	371.12
2358.178	366.12
2373.508	384.12
2388.785	375.12
2404.007	363.12
2419.174	361.12
2434.289	349.12
2449.349	340.12
2464.356	313.12
2479.311	310.12
2494.213	303.12
2509.062	310.12
2523.859	303.12
2538.605	303.12
2553.299	306.12
2567.941	307.12
2582.533	284.12
2597.073	283.12
2611.564	275.12
2626.004	254.12
2640.394	244.12
2654.734	230.12
2669.025	217.12
2683.266	208.12
2697.458	188.12
2711.602	172.12
2725.697	151.12
2739.744	148.12
2753.743	161.12
2767.695	167.12
2781.598	150.12
2795.455	147.12
2809.264	143.12
2823.026	145.12
2836.742	141.12
2850.412	143.12
2864.035	138.12
2877.613	129.12
2891.145	122.12
2904.631	109.12
2918.073	97.12
2931.469	95.12
2944.821	89.12
2958.128	75.12
2971.39	63.12
2984.609	59.12
2997.784	61.12
3010.915	55.12
3024.002	52.12
3037.046	39.12
3050.048	30.12
3063.006	21.12
3075.922	29.12
3088.795	19.12
3101.627	23.12
3114.416	20.12
3127.163	17.12
3139.869	7.12
3152.533	2.12
3165.157	-5.88
3177.739	-7.88
3190.28	-7.88
3202.781	-13.88
3215.241	-21.88
3227.661	-24.88
3240.041	-20.88
3252.382	-23.88
3264.682	-19.88
3276.943	-30.88
3289.165	-26.88
3301.348	-39.88
3313.492	-36.88
3325.597	-43.88
3337.663	-44.88
3349.691	-43.88
3361.681	-43.88
3373.633	-40.88
3385.547	-46.88
3397.424	-44.88
3409.263	-51.88
3421.065	-47.88
3432.829	-54.88
3444.557	-53.88
3456.247	-60.88
3467.902	-62.88
3479.519	-57.88
3491.101	-64.88
3502.646	-65.88
3514.155	-56.88
3525.629	-66.88
3537.067	-65.88
3548.469	-69.88
3559.837	-59.88
3571.169	-65.88
3582.466	-60.88
3593.728	-67.88
3604.956	-67.88
3616.149	-73.88
3627.307	-72.88
3638.432	-68.88
3649.523	-75.88
3660.579	-71.88
3671.602	-72.88
3682.591	-74.88
3693.547	-68.88
3704.47	-75.88
3715.359	-74.88
3726.216	-78.88
3737.039	-78.88
3747.83	-77.88
3758.589	-73.88
3769.315	-76.88
3780.008	-80.88
3790.67	-77.88
3801.299	-78.88
3811.897	-79.88
3822.463	-74.88
3832.998	-75.88
3843.501	-74.88
3853.973	-77.88
3864.414	-73.88
3874.823	-53.88
3885.202	10.12
3895.55	-63.88
3905.868	-77.88
3916.155	-83.88
3926.411	-78.88
3936.638	-86.88
3946.834	-79.88
3957	-79.88
3967.137	-77.88
3977.244	-81.88
3987.321	-78.88
3997.369	-76.88
4007.388	-77.88
4017.377	-78.88
4027.338	-75.88
4037.269	-80.88
4047.172	-76.88
4057.046	-75.88
4066.891	-88.88
4076.708	-82.88
4086.497	-81.88
4096.257	-80.88
4105.989	27.12
4115.694	11.12
4125.37	-82.88
4135.019	-82.88
4142.237	-87.88