File: Data/Raman/2017-08-29 - Alluminum 2/Aug 29 2017 - Aluminum 2/EC 11 2_RamanShift_3.txt
Data from EC 11 2_RamanShift_3.txt Node

Date: Tue Aug 29 12:19:07 IDT 2017
User: aro
Spectrometer: QEPB0276
Trigger mode: 0
Integration Time (sec): 3.000000E1
Scans to average: 1
Electric dark correction enabled: true
Nonlinearity correction enabled: false
Boxcar width: 0
XAxis mode: Raman Shifts
Number of Pixels in Spectrum: 1044
>>>>>Begin Spectral Data<<<<<
160.701	16.38
184.826	1135.38
208.845	5387.38
232.758	5954.38
256.565	6463.38
280.267	6789.38
303.865	7097.38
327.359	7247.38
350.751	7368.38
374.04	7607.38
397.228	7655.38
420.315	9245.38
443.302	7713.38
466.189	7458.38
488.978	7343.38
511.668	6655.38
534.261	6026.38
556.756	5826.38
579.155	5795.38
601.459	5691.38
623.667	5534.38
645.781	5902.38
667.8	5412.38
689.726	5269.38
711.56	5168.38
733.301	5126.38
754.951	5260.38
776.509	5209.38
797.977	5222.38
819.355	5111.38
840.644	5021.38
861.844	4933.38
882.955	4815.38
903.979	4642.38
924.916	4640.38
945.766	4665.38
966.529	4512.38
987.208	4336.38
1007.801	4446.38
1028.309	4531.38
1048.734	4434.38
1069.075	4312.38
1089.333	4343.38
1109.509	4294.38
1129.602	4079.38
1149.614	4031.38
1169.545	4055.38
1189.395	3988.38
1209.165	3929.38
1228.856	4017.38
1248.467	3939.38
1268	3698.38
1287.455	3616.38
1306.832	3625.38
1326.132	3535.38
1345.354	3230.38
1364.501	3158.38
1383.572	3325.38
1402.567	3193.38
1421.487	3034.38
1440.333	3063.38
1459.104	2981.38
1477.802	2795.38
1496.426	2782.38
1514.978	2938.38
1533.457	2968.38
1551.864	2853.38
1570.199	2764.38
1588.464	2680.38
1606.657	2569.38
1624.78	2410.38
1642.834	2403.38
1660.817	2423.38
1678.732	2289.38
1696.577	2164.38
1714.355	2330.38
1732.064	2256.38
1749.705	2091.38
1767.28	1880.38
1784.787	1792.38
1802.228	1924.38
1819.603	1935.38
1836.913	1818.38
1854.156	1764.38
1871.335	1749.38
1888.449	1700.38
1905.499	1626.38
1922.485	1644.38
1939.408	1742.38
1956.267	1718.38
1973.063	1595.38
1989.797	1486.38
2006.469	1468.38
2023.078	1415.38
2039.627	1333.38
2056.114	1254.38
2072.54	1292.38
2088.906	1321.38
2105.211	1292.38
2121.457	1256.38
2137.643	1224.38
2153.77	1200.38
2169.838	1144.38
2185.848	1088.38
2201.799	1045.38
2217.693	1032.38
2233.529	1047.38
2249.307	1005.38
2265.029	958.38
2280.694	918.38
2296.302	904.38
2311.854	871.38
2327.351	867.38
2342.792	834.38
2358.178	829.38
2373.508	838.38
2388.785	818.38
2404.007	792.38
2419.174	779.38
2434.289	755.38
2449.349	719.38
2464.356	684.38
2479.311	666.38
2494.213	664.38
2509.062	655.38
2523.859	632.38
2538.605	617.38
2553.299	621.38
2567.941	590.38
2582.533	597.38
2597.073	564.38
2611.564	547.38
2626.004	518.38
2640.394	490.38
2654.734	476.38
2669.025	430.38
2683.266	421.38
2697.458	364.38
2711.602	341.38
2725.697	298.38
2739.744	292.38
2753.743	294.38
2767.695	304.38
2781.598	291.38
2795.455	271.38
2809.264	262.38
2823.026	262.38
2836.742	250.38
2850.412	245.38
2864.035	247.38
2877.613	234.38
2891.145	207.38
2904.631	193.38
2918.073	167.38
2931.469	150.38
2944.821	142.38
2958.128	112.38
2971.39	97.38
2984.609	77.38
2997.784	89.38
3010.915	87.38
3024.002	61.38
3037.046	51.38
3050.048	38.38
3063.006	24.38
3075.922	28.38
3088.795	14.38
3101.627	16.38
3114.416	8.38
3127.163	3.38
3139.869	2.38
3152.533	-8.62
3165.157	-20.62
3177.739	-34.62
3190.28	-46.62
3202.781	-52.62
3215.241	-62.62
3227.661	-68.62
3240.041	-74.62
3252.382	-79.62
3264.682	-77.62
3276.943	-82.62
3289.165	-81.62
3301.348	-93.62
3313.492	-91.62
3325.597	-98.62
3337.663	-99.62
3349.691	-106.62
3361.681	-108.62
3373.633	-106.62
3385.547	-114.62
3397.424	-113.62
3409.263	-116.62
3421.065	-122.62
3432.829	-120.62
3444.557	-116.62
3456.247	-124.62
3467.902	-128.62
3479.519	-125.62
3491.101	-129.62
3502.646	-126.62
3514.155	-133.62
3525.629	-138.62
3537.067	-139.62
3548.469	-146.62
3559.837	-134.62
3571.169	-142.62
3582.466	-144.62
3593.728	-144.62
3604.956	-151.62
3616.149	-155.62
3627.307	-149.62
3638.432	-152.62
3649.523	-151.62
3660.579	-150.62
3671.602	-150.62
3682.591	-153.62
3693.547	-149.62
3704.47	-156.62
3715.359	-150.62
3726.216	-158.62
3737.039	-156.62
3747.83	-157.62
3758.589	-151.62
3769.315	-155.62
3780.008	-162.62
3790.67	-159.62
3801.299	-154.62
3811.897	-158.62
3822.463	-155.62
3832.998	-156.62
3843.501	-157.62
3853.973	-155.62
3864.414	-155.62
3874.823	-121.62
3885.202	-23.62
3895.55	-142.62
3905.868	-162.62
3916.155	-158.62
3926.411	-160.62
3936.638	-166.62
3946.834	-159.62
3957	-154.62
3967.137	-157.62
3977.244	-156.62
3987.321	-154.62
3997.369	-157.62
4007.388	-153.62
4017.377	-151.62
4027.338	-151.62
4037.269	-154.62
4047.172	-158.62
4057.046	-155.62
4066.891	-160.62
4076.708	-156.62
4086.497	-157.62
4096.257	-166.62
4105.989	-11.62
4115.694	-8.62
4125.37	-160.62
4135.019	-169.62
4142.237	-167.62