File: Data/Raman/2017-08-29 - Alluminum 2/Aug 29 2017 - Aluminum 2/EC 11 1_RamanShift_3.txt
Data from EC 11 1_RamanShift_3.txt Node

Date: Tue Aug 29 12:21:07 IDT 2017
User: aro
Spectrometer: QEPB0276
Trigger mode: 0
Integration Time (sec): 3.000000E1
Scans to average: 1
Electric dark correction enabled: true
Nonlinearity correction enabled: false
Boxcar width: 0
XAxis mode: Raman Shifts
Number of Pixels in Spectrum: 1044
>>>>>Begin Spectral Data<<<<<
160.701	12.5
184.826	986.5
208.845	4670.5
232.758	5142.5
256.565	5550.5
280.267	5804.5
303.865	6036.5
327.359	6152.5
350.751	6187.5
374.04	6347.5
397.228	6383.5
420.315	7469.5
443.302	6421.5
466.189	6192.5
488.978	6061.5
511.668	5590.5
534.261	5114.5
556.756	4961.5
579.155	4919.5
601.459	4838.5
623.667	4700.5
645.781	4943.5
667.8	4584.5
689.726	4477.5
711.56	4395.5
733.301	4331.5
754.951	4415.5
776.509	4373.5
797.977	4382.5
819.355	4281.5
840.644	4203.5
861.844	4158.5
882.955	4079.5
903.979	3933.5
924.916	3925.5
945.766	3922.5
966.529	3855.5
987.208	3673.5
1007.801	3760.5
1028.309	3796.5
1048.734	3735.5
1069.075	3610.5
1089.333	3653.5
1109.509	3628.5
1129.602	3447.5
1149.614	3404.5
1169.545	3403.5
1189.395	3343.5
1209.165	3315.5
1228.856	3372.5
1248.467	3320.5
1268	3101.5
1287.455	3034.5
1306.832	3038.5
1326.132	2958.5
1345.354	2721.5
1364.501	2688.5
1383.572	2773.5
1402.567	2684.5
1421.487	2556.5
1440.333	2586.5
1459.104	2548.5
1477.802	2377.5
1496.426	2337.5
1514.978	2482.5
1533.457	2486.5
1551.864	2374.5
1570.199	2297.5
1588.464	2262.5
1606.657	2138.5
1624.78	2046.5
1642.834	2024.5
1660.817	2043.5
1678.732	1955.5
1696.577	1851.5
1714.355	1952.5
1732.064	1895.5
1749.705	1745.5
1767.28	1581.5
1784.787	1541.5
1802.228	1617.5
1819.603	1596.5
1836.913	1523.5
1854.156	1469.5
1871.335	1482.5
1888.449	1447.5
1905.499	1411.5
1922.485	1444.5
1939.408	1489.5
1956.267	1451.5
1973.063	1331.5
1989.797	1249.5
2006.469	1238.5
2023.078	1184.5
2039.627	1112.5
2056.114	1087.5
2072.54	1091.5
2088.906	1124.5
2105.211	1094.5
2121.457	1064.5
2137.643	1024.5
2153.77	995.5
2169.838	937.5
2185.848	892.5
2201.799	875.5
2217.693	861.5
2233.529	851.5
2249.307	827.5
2265.029	785.5
2280.694	742.5
2296.302	722.5
2311.854	695.5
2327.351	682.5
2342.792	657.5
2358.178	646.5
2373.508	660.5
2388.785	643.5
2404.007	631.5
2419.174	616.5
2434.289	607.5
2449.349	582.5
2464.356	553.5
2479.311	537.5
2494.213	529.5
2509.062	528.5
2523.859	510.5
2538.605	504.5
2553.299	497.5
2567.941	498.5
2582.533	479.5
2597.073	458.5
2611.564	434.5
2626.004	410.5
2640.394	389.5
2654.734	362.5
2669.025	329.5
2683.266	325.5
2697.458	291.5
2711.602	267.5
2725.697	243.5
2739.744	234.5
2753.743	237.5
2767.695	253.5
2781.598	229.5
2795.455	221.5
2809.264	208.5
2823.026	210.5
2836.742	206.5
2850.412	199.5
2864.035	185.5
2877.613	183.5
2891.145	168.5
2904.631	142.5
2918.073	128.5
2931.469	135.5
2944.821	102.5
2958.128	84.5
2971.39	76.5
2984.609	68.5
2997.784	74.5
3010.915	60.5
3024.002	46.5
3037.046	37.5
3050.048	25.5
3063.006	16.5
3075.922	8.5
3088.795	5.5
3101.627	13.5
3114.416	9.5
3127.163	-1.5
3139.869	-4.5
3152.533	-13.5
3165.157	-21.5
3177.739	-23.5
3190.28	-36.5
3202.781	-42.5
3215.241	-47.5
3227.661	-56.5
3240.041	-57.5
3252.382	-64.5
3264.682	-65.5
3276.943	-69.5
3289.165	-64.5
3301.348	-78.5
3313.492	-77.5
3325.597	-90.5
3337.663	-92.5
3349.691	-88.5
3361.681	-89.5
3373.633	-93.5
3385.547	-89.5
3397.424	-92.5
3409.263	-96.5
3421.065	-99.5
3432.829	-105.5
3444.557	-100.5
3456.247	-106.5
3467.902	-112.5
3479.519	-103.5
3491.101	-107.5
3502.646	-112.5
3514.155	-107.5
3525.629	-119.5
3537.067	-115.5
3548.469	-120.5
3559.837	-117.5
3571.169	-123.5
3582.466	-117.5
3593.728	-117.5
3604.956	-125.5
3616.149	-135.5
3627.307	-127.5
3638.432	-126.5
3649.523	-130.5
3660.579	-130.5
3671.602	-127.5
3682.591	-129.5
3693.547	-131.5
3704.47	-130.5
3715.359	-132.5
3726.216	-136.5
3737.039	-134.5
3747.83	-133.5
3758.589	-132.5
3769.315	-131.5
3780.008	-140.5
3790.67	-131.5
3801.299	-135.5
3811.897	-133.5
3822.463	-135.5
3832.998	-130.5
3843.501	-130.5
3853.973	-127.5
3864.414	-130.5
3874.823	-98.5
3885.202	-10.5
3895.55	-115.5
3905.868	-137.5
3916.155	-136.5
3926.411	-136.5
3936.638	-144.5
3946.834	-137.5
3957	-135.5
3967.137	-132.5
3977.244	-135.5
3987.321	-130.5
3997.369	-133.5
4007.388	-126.5
4017.377	-129.5
4027.338	-123.5
4037.269	-128.5
4047.172	-126.5
4057.046	-133.5
4066.891	-132.5
4076.708	-135.5
4086.497	-136.5
4096.257	-137.5
4105.989	-3.5
4115.694	-0.5
4125.37	-135.5
4135.019	-142.5
4142.237	-144.5