File: Data/Raman/2017-08-29 - Alluminum 2/Aug 29 2017 - Aluminum 2/EC 11 2_RamanShift_1.txt
Data from EC 11 2_RamanShift_1.txt Node

Date: Tue Aug 29 12:18:07 IDT 2017
User: aro
Spectrometer: QEPB0276
Trigger mode: 0
Integration Time (sec): 3.000000E1
Scans to average: 1
Electric dark correction enabled: true
Nonlinearity correction enabled: false
Boxcar width: 0
XAxis mode: Raman Shifts
Number of Pixels in Spectrum: 1044
>>>>>Begin Spectral Data<<<<<
160.701	14.38
184.826	1404.38
208.845	6753.38
232.758	7484.38
256.565	8045.38
280.267	8474.38
303.865	8781.38
327.359	9019.38
350.751	9133.38
374.04	9345.38
397.228	9357.38
420.315	10951.38
443.302	9451.38
466.189	9143.38
488.978	8997.38
511.668	8277.38
534.261	7623.38
556.756	7417.38
579.155	7322.38
601.459	7217.38
623.667	7045.38
645.781	7372.38
667.8	6859.38
689.726	6737.38
711.56	6574.38
733.301	6481.38
754.951	6593.38
776.509	6537.38
797.977	6533.38
819.355	6402.38
840.644	6291.38
861.844	6225.38
882.955	6055.38
903.979	5869.38
924.916	5807.38
945.766	5831.38
966.529	5651.38
987.208	5438.38
1007.801	5536.38
1028.309	5631.38
1048.734	5504.38
1069.075	5330.38
1089.333	5373.38
1109.509	5313.38
1129.602	5078.38
1149.614	4974.38
1169.545	5060.38
1189.395	4906.38
1209.165	4863.38
1228.856	4927.38
1248.467	4831.38
1268	4522.38
1287.455	4418.38
1306.832	4467.38
1326.132	4278.38
1345.354	3918.38
1364.501	3845.38
1383.572	4075.38
1402.567	3893.38
1421.487	3748.38
1440.333	3714.38
1459.104	3637.38
1477.802	3377.38
1496.426	3327.38
1514.978	3566.38
1533.457	3572.38
1551.864	3445.38
1570.199	3327.38
1588.464	3258.38
1606.657	3107.38
1624.78	2926.38
1642.834	2888.38
1660.817	2900.38
1678.732	2767.38
1696.577	2601.38
1714.355	2774.38
1732.064	2714.38
1749.705	2486.38
1767.28	2235.38
1784.787	2140.38
1802.228	2293.38
1819.603	2265.38
1836.913	2144.38
1854.156	2089.38
1871.335	2080.38
1888.449	2007.38
1905.499	1938.38
1922.485	1966.38
1939.408	2046.38
1956.267	2029.38
1973.063	1901.38
1989.797	1792.38
2006.469	1729.38
2023.078	1657.38
2039.627	1535.38
2056.114	1494.38
2072.54	1510.38
2088.906	1539.38
2105.211	1524.38
2121.457	1463.38
2137.643	1430.38
2153.77	1397.38
2169.838	1308.38
2185.848	1255.38
2201.799	1227.38
2217.693	1217.38
2233.529	1215.38
2249.307	1142.38
2265.029	1106.38
2280.694	1059.38
2296.302	1029.38
2311.854	985.38
2327.351	982.38
2342.792	942.38
2358.178	947.38
2373.508	948.38
2388.785	947.38
2404.007	896.38
2419.174	900.38
2434.289	862.38
2449.349	828.38
2464.356	784.38
2479.311	760.38
2494.213	752.38
2509.062	743.38
2523.859	701.38
2538.605	703.38
2553.299	688.38
2567.941	692.38
2582.533	658.38
2597.073	635.38
2611.564	619.38
2626.004	590.38
2640.394	549.38
2654.734	509.38
2669.025	477.38
2683.266	462.38
2697.458	403.38
2711.602	379.38
2725.697	327.38
2739.744	320.38
2753.743	329.38
2767.695	332.38
2781.598	326.38
2795.455	301.38
2809.264	292.38
2823.026	280.38
2836.742	277.38
2850.412	261.38
2864.035	255.38
2877.613	247.38
2891.145	217.38
2904.631	183.38
2918.073	169.38
2931.469	157.38
2944.821	138.38
2958.128	109.38
2971.39	100.38
2984.609	88.38
2997.784	89.38
3010.915	83.38
3024.002	61.38
3037.046	52.38
3050.048	25.38
3063.006	13.38
3075.922	14.38
3088.795	1.38
3101.627	4.38
3114.416	-1.62
3127.163	-12.62
3139.869	-16.62
3152.533	-30.62
3165.157	-47.62
3177.739	-50.62
3190.28	-58.62
3202.781	-74.62
3215.241	-76.62
3227.661	-85.62
3240.041	-95.62
3252.382	-95.62
3264.682	-97.62
3276.943	-106.62
3289.165	-100.62
3301.348	-109.62
3313.492	-111.62
3325.597	-120.62
3337.663	-125.62
3349.691	-131.62
3361.681	-132.62
3373.633	-130.62
3385.547	-136.62
3397.424	-137.62
3409.263	-142.62
3421.065	-144.62
3432.829	-150.62
3444.557	-146.62
3456.247	-150.62
3467.902	-163.62
3479.519	-152.62
3491.101	-154.62
3502.646	-159.62
3514.155	-164.62
3525.629	-168.62
3537.067	-168.62
3548.469	-172.62
3559.837	-171.62
3571.169	-170.62
3582.466	-175.62
3593.728	-170.62
3604.956	-176.62
3616.149	-180.62
3627.307	-177.62
3638.432	-174.62
3649.523	-176.62
3660.579	-182.62
3671.602	-182.62
3682.591	-183.62
3693.547	-181.62
3704.47	-189.62
3715.359	-186.62
3726.216	-191.62
3737.039	-193.62
3747.83	-189.62
3758.589	-186.62
3769.315	-186.62
3780.008	-197.62
3790.67	-185.62
3801.299	-185.62
3811.897	-185.62
3822.463	-182.62
3832.998	-182.62
3843.501	-185.62
3853.973	-182.62
3864.414	-185.62
3874.823	-150.62
3885.202	-38.62
3895.55	-174.62
3905.868	-192.62
3916.155	-190.62
3926.411	-195.62
3936.638	-191.62
3946.834	-191.62
3957	-195.62
3967.137	-190.62
3977.244	-189.62
3987.321	-184.62
3997.369	-187.62
4007.388	-178.62
4017.377	-181.62
4027.338	-181.62
4037.269	-185.62
4047.172	-186.62
4057.046	-182.62
4066.891	-188.62
4076.708	-184.62
4086.497	-187.62
4096.257	-195.62
4105.989	-23.62
4115.694	-18.62
4125.37	-189.62
4135.019	-195.62
4142.237	-203.62