File: Data/Raman/2017-08-29 - Alluminum 2/Aug 29 2017 - Aluminum 2/water 5_RamanShift_2.txt
Data from water 5_RamanShift_2.txt Node

Date: Tue Aug 29 12:49:37 IDT 2017
User: aro
Spectrometer: QEPB0276
Trigger mode: 0
Integration Time (sec): 3.000000E1
Scans to average: 1
Electric dark correction enabled: true
Nonlinearity correction enabled: false
Boxcar width: 0
XAxis mode: Raman Shifts
Number of Pixels in Spectrum: 1044
>>>>>Begin Spectral Data<<<<<
160.701	38.38
184.826	444.38
208.845	1907.38
232.758	2048.38
256.565	2246.38
280.267	2411.38
303.865	2633.38
327.359	2736.38
350.751	2894.38
374.04	3176.38
397.228	3228.38
420.315	5042.38
443.302	3308.38
466.189	3007.38
488.978	2867.38
511.668	2137.38
534.261	1480.38
556.756	1284.38
579.155	1242.38
601.459	1213.38
623.667	1145.38
645.781	1608.38
667.8	1084.38
689.726	960.38
711.56	919.38
733.301	955.38
754.951	1150.38
776.509	1065.38
797.977	1159.38
819.355	1127.38
840.644	1024.38
861.844	911.38
882.955	835.38
903.979	801.38
924.916	788.38
945.766	789.38
966.529	764.38
987.208	729.38
1007.801	755.38
1028.309	812.38
1048.734	827.38
1069.075	828.38
1089.333	814.38
1109.509	772.38
1129.602	714.38
1149.614	728.38
1169.545	751.38
1189.395	742.38
1209.165	758.38
1228.856	752.38
1248.467	722.38
1268	675.38
1287.455	657.38
1306.832	678.38
1326.132	657.38
1345.354	630.38
1364.501	617.38
1383.572	618.38
1402.567	582.38
1421.487	566.38
1440.333	578.38
1459.104	593.38
1477.802	576.38
1496.426	582.38
1514.978	627.38
1533.457	600.38
1551.864	585.38
1570.199	555.38
1588.464	548.38
1606.657	522.38
1624.78	506.38
1642.834	524.38
1660.817	523.38
1678.732	517.38
1696.577	517.38
1714.355	515.38
1732.064	490.38
1749.705	444.38
1767.28	407.38
1784.787	408.38
1802.228	419.38
1819.603	404.38
1836.913	381.38
1854.156	382.38
1871.335	384.38
1888.449	377.38
1905.499	368.38
1922.485	384.38
1939.408	386.38
1956.267	372.38
1973.063	340.38
1989.797	314.38
2006.469	316.38
2023.078	288.38
2039.627	281.38
2056.114	290.38
2072.54	285.38
2088.906	300.38
2105.211	288.38
2121.457	278.38
2137.643	264.38
2153.77	249.38
2169.838	237.38
2185.848	227.38
2201.799	217.38
2217.693	220.38
2233.529	227.38
2249.307	211.38
2265.029	208.38
2280.694	188.38
2296.302	177.38
2311.854	174.38
2327.351	180.38
2342.792	158.38
2358.178	150.38
2373.508	158.38
2388.785	153.38
2404.007	147.38
2419.174	152.38
2434.289	142.38
2449.349	132.38
2464.356	124.38
2479.311	126.38
2494.213	119.38
2509.062	124.38
2523.859	122.38
2538.605	120.38
2553.299	116.38
2567.941	121.38
2582.533	113.38
2597.073	103.38
2611.564	107.38
2626.004	95.38
2640.394	95.38
2654.734	75.38
2669.025	69.38
2683.266	71.38
2697.458	58.38
2711.602	55.38
2725.697	41.38
2739.744	46.38
2753.743	45.38
2767.695	51.38
2781.598	51.38
2795.455	35.38
2809.264	30.38
2823.026	40.38
2836.742	47.38
2850.412	30.38
2864.035	33.38
2877.613	26.38
2891.145	21.38
2904.631	16.38
2918.073	6.38
2931.469	8.38
2944.821	2.38
2958.128	-1.62
2971.39	-9.62
2984.609	-6.62
2997.784	-7.62
3010.915	-21.62
3024.002	-18.62
3037.046	-25.62
3050.048	-24.62
3063.006	-24.62
3075.922	-30.62
3088.795	-33.62
3101.627	-23.62
3114.416	-27.62
3127.163	-28.62
3139.869	-27.62
3152.533	-35.62
3165.157	-35.62
3177.739	-38.62
3190.28	-41.62
3202.781	-52.62
3215.241	-52.62
3227.661	-58.62
3240.041	-55.62
3252.382	-57.62
3264.682	-59.62
3276.943	-56.62
3289.165	-59.62
3301.348	-60.62
3313.492	-62.62
3325.597	-68.62
3337.663	-70.62
3349.691	-67.62
3361.681	-66.62
3373.633	-62.62
3385.547	-67.62
3397.424	-64.62
3409.263	-69.62
3421.065	-69.62
3432.829	-70.62
3444.557	-67.62
3456.247	-69.62
3467.902	-78.62
3479.519	-62.62
3491.101	-69.62
3502.646	-71.62
3514.155	-69.62
3525.629	-74.62
3537.067	-72.62
3548.469	-78.62
3559.837	-75.62
3571.169	-74.62
3582.466	-71.62
3593.728	-70.62
3604.956	-76.62
3616.149	-79.62
3627.307	-84.62
3638.432	-83.62
3649.523	-84.62
3660.579	-86.62
3671.602	-82.62
3682.591	-78.62
3693.547	-80.62
3704.47	-84.62
3715.359	-80.62
3726.216	-86.62
3737.039	-86.62
3747.83	-85.62
3758.589	-83.62
3769.315	-82.62
3780.008	-91.62
3790.67	-84.62
3801.299	-87.62
3811.897	-86.62
3822.463	-84.62
3832.998	-78.62
3843.501	-80.62
3853.973	-84.62
3864.414	-79.62
3874.823	-48.62
3885.202	76.38
3895.55	-63.62
3905.868	-88.62
3916.155	-86.62
3926.411	-85.62
3936.638	-92.62
3946.834	-86.62
3957	-84.62
3967.137	-83.62
3977.244	-85.62
3987.321	-81.62
3997.369	-87.62
4007.388	-80.62
4017.377	-77.62
4027.338	-78.62
4037.269	-83.62
4047.172	-82.62
4057.046	-75.62
4066.891	-83.62
4076.708	-83.62
4086.497	-87.62
4096.257	-85.62
4105.989	57.38
4115.694	35.38
4125.37	-86.62
4135.019	-86.62
4142.237	-89.62