File: Data/Raman/2017-08-29 - Alluminum 2/Aug 29 2017 - Aluminum 2/water 5_RamanShift_3.txt
Data from water 5_RamanShift_3.txt Node

Date: Tue Aug 29 12:50:07 IDT 2017
User: aro
Spectrometer: QEPB0276
Trigger mode: 0
Integration Time (sec): 3.000000E1
Scans to average: 1
Electric dark correction enabled: true
Nonlinearity correction enabled: false
Boxcar width: 0
XAxis mode: Raman Shifts
Number of Pixels in Spectrum: 1044
>>>>>Begin Spectral Data<<<<<
160.701	34.5
184.826	428.5
208.845	1918.5
232.758	2060.5
256.565	2222.5
280.267	2426.5
303.865	2610.5
327.359	2726.5
350.751	2875.5
374.04	3172.5
397.228	3235.5
420.315	5018.5
443.302	3316.5
466.189	2997.5
488.978	2895.5
511.668	2135.5
534.261	1468.5
556.756	1271.5
579.155	1246.5
601.459	1200.5
623.667	1125.5
645.781	1594.5
667.8	1064.5
689.726	955.5
711.56	914.5
733.301	946.5
754.951	1141.5
776.509	1059.5
797.977	1169.5
819.355	1121.5
840.644	1036.5
861.844	904.5
882.955	815.5
903.979	794.5
924.916	779.5
945.766	773.5
966.529	769.5
987.208	737.5
1007.801	757.5
1028.309	797.5
1048.734	819.5
1069.075	818.5
1089.333	813.5
1109.509	769.5
1129.602	709.5
1149.614	711.5
1169.545	747.5
1189.395	741.5
1209.165	745.5
1228.856	771.5
1248.467	729.5
1268	670.5
1287.455	639.5
1306.832	651.5
1326.132	652.5
1345.354	631.5
1364.501	628.5
1383.572	615.5
1402.567	578.5
1421.487	574.5
1440.333	573.5
1459.104	596.5
1477.802	580.5
1496.426	579.5
1514.978	631.5
1533.457	597.5
1551.864	584.5
1570.199	553.5
1588.464	535.5
1606.657	526.5
1624.78	503.5
1642.834	504.5
1660.817	524.5
1678.732	515.5
1696.577	511.5
1714.355	509.5
1732.064	475.5
1749.705	432.5
1767.28	406.5
1784.787	400.5
1802.228	421.5
1819.603	400.5
1836.913	375.5
1854.156	368.5
1871.335	380.5
1888.449	372.5
1905.499	367.5
1922.485	385.5
1939.408	399.5
1956.267	384.5
1973.063	337.5
1989.797	313.5
2006.469	302.5
2023.078	305.5
2039.627	290.5
2056.114	274.5
2072.54	291.5
2088.906	303.5
2105.211	296.5
2121.457	270.5
2137.643	254.5
2153.77	243.5
2169.838	233.5
2185.848	225.5
2201.799	219.5
2217.693	209.5
2233.529	214.5
2249.307	207.5
2265.029	199.5
2280.694	184.5
2296.302	179.5
2311.854	176.5
2327.351	187.5
2342.792	162.5
2358.178	158.5
2373.508	158.5
2388.785	162.5
2404.007	152.5
2419.174	160.5
2434.289	151.5
2449.349	140.5
2464.356	122.5
2479.311	117.5
2494.213	116.5
2509.062	118.5
2523.859	117.5
2538.605	118.5
2553.299	119.5
2567.941	110.5
2582.533	107.5
2597.073	103.5
2611.564	102.5
2626.004	86.5
2640.394	87.5
2654.734	75.5
2669.025	66.5
2683.266	62.5
2697.458	55.5
2711.602	48.5
2725.697	40.5
2739.744	45.5
2753.743	42.5
2767.695	50.5
2781.598	40.5
2795.455	39.5
2809.264	29.5
2823.026	41.5
2836.742	41.5
2850.412	27.5
2864.035	29.5
2877.613	25.5
2891.145	23.5
2904.631	16.5
2918.073	6.5
2931.469	7.5
2944.821	-7.5
2958.128	-6.5
2971.39	-8.5
2984.609	-11.5
2997.784	-3.5
3010.915	-10.5
3024.002	-16.5
3037.046	-21.5
3050.048	-29.5
3063.006	-26.5
3075.922	-32.5
3088.795	-32.5
3101.627	-30.5
3114.416	-33.5
3127.163	-30.5
3139.869	-28.5
3152.533	-37.5
3165.157	-38.5
3177.739	-43.5
3190.28	-46.5
3202.781	-48.5
3215.241	-55.5
3227.661	-52.5
3240.041	-57.5
3252.382	-55.5
3264.682	-54.5
3276.943	-59.5
3289.165	-60.5
3301.348	-66.5
3313.492	-64.5
3325.597	-72.5
3337.663	-72.5
3349.691	-67.5
3361.681	-66.5
3373.633	-67.5
3385.547	-69.5
3397.424	-65.5
3409.263	-65.5
3421.065	-67.5
3432.829	-68.5
3444.557	-63.5
3456.247	-75.5
3467.902	-79.5
3479.519	-70.5
3491.101	-74.5
3502.646	-73.5
3514.155	-74.5
3525.629	-81.5
3537.067	-78.5
3548.469	-80.5
3559.837	-73.5
3571.169	-78.5
3582.466	-75.5
3593.728	-77.5
3604.956	-77.5
3616.149	-86.5
3627.307	-84.5
3638.432	-80.5
3649.523	-85.5
3660.579	-84.5
3671.602	-78.5
3682.591	-81.5
3693.547	-80.5
3704.47	-81.5
3715.359	-83.5
3726.216	-85.5
3737.039	-87.5
3747.83	-88.5
3758.589	-86.5
3769.315	-84.5
3780.008	-89.5
3790.67	-81.5
3801.299	-89.5
3811.897	-86.5
3822.463	-81.5
3832.998	-82.5
3843.501	-81.5
3853.973	-84.5
3864.414	-81.5
3874.823	-49.5
3885.202	67.5
3895.55	-69.5
3905.868	-82.5
3916.155	-87.5
3926.411	-84.5
3936.638	-90.5
3946.834	-89.5
3957	-88.5
3967.137	-84.5
3977.244	-87.5
3987.321	-84.5
3997.369	-91.5
4007.388	-79.5
4017.377	-78.5
4027.338	-82.5
4037.269	-87.5
4047.172	-81.5
4057.046	-84.5
4066.891	-86.5
4076.708	-83.5
4086.497	-90.5
4096.257	-89.5
4105.989	58.5
4115.694	40.5
4125.37	-85.5
4135.019	-83.5
4142.237	-91.5