File: Data/Raman/2017-08-29 - Alluminum 2/Aug 29 2017 - Aluminum 2/water 1_RamanShift_3.txt
Data from water 1_RamanShift_3.txt Node

Date: Tue Aug 29 12:03:37 IDT 2017
User: aro
Spectrometer: QEPB0276
Trigger mode: 0
Integration Time (sec): 3.000000E1
Scans to average: 1
Electric dark correction enabled: true
Nonlinearity correction enabled: false
Boxcar width: 0
XAxis mode: Raman Shifts
Number of Pixels in Spectrum: 1044
>>>>>Begin Spectral Data<<<<<
160.701	50.38
184.826	606.38
208.845	2599.38
232.758	2708.38
256.565	2903.38
280.267	3100.38
303.865	3246.38
327.359	3384.38
350.751	3560.38
374.04	4002.38
397.228	4036.38
420.315	6825.38
443.302	4169.38
466.189	3728.38
488.978	3532.38
511.668	2567.38
534.261	1684.38
556.756	1407.38
579.155	1365.38
601.459	1325.38
623.667	1230.38
645.781	1989.38
667.8	1149.38
689.726	983.38
711.56	941.38
733.301	964.38
754.951	1242.38
776.509	1114.38
797.977	1260.38
819.355	1203.38
840.644	1048.38
861.844	879.38
882.955	769.38
903.979	737.38
924.916	721.38
945.766	716.38
966.529	691.38
987.208	658.38
1007.801	690.38
1028.309	730.38
1048.734	774.38
1069.075	777.38
1089.333	744.38
1109.509	703.38
1129.602	633.38
1149.614	636.38
1169.545	669.38
1189.395	662.38
1209.165	665.38
1228.856	671.38
1248.467	649.38
1268	562.38
1287.455	556.38
1306.832	559.38
1326.132	549.38
1345.354	529.38
1364.501	524.38
1383.572	515.38
1402.567	481.38
1421.487	459.38
1440.333	476.38
1459.104	494.38
1477.802	481.38
1496.426	500.38
1514.978	536.38
1533.457	507.38
1551.864	480.38
1570.199	462.38
1588.464	443.38
1606.657	434.38
1624.78	429.38
1642.834	433.38
1660.817	445.38
1678.732	432.38
1696.577	427.38
1714.355	434.38
1732.064	391.38
1749.705	357.38
1767.28	339.38
1784.787	332.38
1802.228	332.38
1819.603	316.38
1836.913	299.38
1854.156	288.38
1871.335	296.38
1888.449	299.38
1905.499	302.38
1922.485	301.38
1939.408	310.38
1956.267	287.38
1973.063	259.38
1989.797	240.38
2006.469	228.38
2023.078	226.38
2039.627	207.38
2056.114	217.38
2072.54	216.38
2088.906	225.38
2105.211	219.38
2121.457	197.38
2137.643	185.38
2153.77	176.38
2169.838	164.38
2185.848	150.38
2201.799	148.38
2217.693	147.38
2233.529	149.38
2249.307	141.38
2265.029	133.38
2280.694	115.38
2296.302	107.38
2311.854	107.38
2327.351	110.38
2342.792	88.38
2358.178	81.38
2373.508	78.38
2388.785	76.38
2404.007	78.38
2419.174	74.38
2434.289	66.38
2449.349	56.38
2464.356	51.38
2479.311	48.38
2494.213	52.38
2509.062	57.38
2523.859	41.38
2538.605	52.38
2553.299	48.38
2567.941	36.38
2582.533	40.38
2597.073	31.38
2611.564	23.38
2626.004	13.38
2640.394	10.38
2654.734	13.38
2669.025	5.38
2683.266	2.38
2697.458	-4.62
2711.602	-8.62
2725.697	-11.62
2739.744	-7.62
2753.743	-5.62
2767.695	-0.62
2781.598	-12.62
2795.455	-16.62
2809.264	-27.62
2823.026	-13.62
2836.742	-19.62
2850.412	-30.62
2864.035	-26.62
2877.613	-33.62
2891.145	-34.62
2904.631	-37.62
2918.073	-48.62
2931.469	-41.62
2944.821	-47.62
2958.128	-50.62
2971.39	-52.62
2984.609	-58.62
2997.784	-47.62
3010.915	-58.62
3024.002	-64.62
3037.046	-63.62
3050.048	-71.62
3063.006	-73.62
3075.922	-73.62
3088.795	-74.62
3101.627	-70.62
3114.416	-70.62
3127.163	-68.62
3139.869	-75.62
3152.533	-76.62
3165.157	-78.62
3177.739	-77.62
3190.28	-79.62
3202.781	-86.62
3215.241	-92.62
3227.661	-91.62
3240.041	-88.62
3252.382	-85.62
3264.682	-91.62
3276.943	-93.62
3289.165	-91.62
3301.348	-91.62
3313.492	-94.62
3325.597	-99.62
3337.663	-103.62
3349.691	-100.62
3361.681	-106.62
3373.633	-97.62
3385.547	-96.62
3397.424	-95.62
3409.263	-101.62
3421.065	-99.62
3432.829	-96.62
3444.557	-98.62
3456.247	-102.62
3467.902	-108.62
3479.519	-100.62
3491.101	-104.62
3502.646	-101.62
3514.155	-101.62
3525.629	-111.62
3537.067	-110.62
3548.469	-111.62
3559.837	-103.62
3571.169	-110.62
3582.466	-104.62
3593.728	-105.62
3604.956	-107.62
3616.149	-107.62
3627.307	-106.62
3638.432	-112.62
3649.523	-114.62
3660.579	-115.62
3671.602	-112.62
3682.591	-113.62
3693.547	-111.62
3704.47	-119.62
3715.359	-111.62
3726.216	-113.62
3737.039	-116.62
3747.83	-115.62
3758.589	-112.62
3769.315	-113.62
3780.008	-120.62
3790.67	-115.62
3801.299	-114.62
3811.897	-116.62
3822.463	-116.62
3832.998	-113.62
3843.501	-113.62
3853.973	-114.62
3864.414	-107.62
3874.823	-46.62
3885.202	129.38
3895.55	-79.62
3905.868	-111.62
3916.155	-113.62
3926.411	-110.62
3936.638	-118.62
3946.834	-116.62
3957	-112.62
3967.137	-111.62
3977.244	-116.62
3987.321	-113.62
3997.369	-117.62
4007.388	-113.62
4017.377	-109.62
4027.338	-112.62
4037.269	-111.62
4047.172	-115.62
4057.046	-110.62
4066.891	-116.62
4076.708	-111.62
4086.497	-116.62
4096.257	-121.62
4105.989	80.38
4115.694	55.38
4125.37	-115.62
4135.019	-119.62
4142.237	-122.62