File: Data/Raman/2017-08-29 - Alluminum 2/Aug 29 2017 - Aluminum 2/water 1_RamanShift_1.txt
Data from water 1_RamanShift_1.txt Node

Date: Tue Aug 29 12:02:37 IDT 2017
User: aro
Spectrometer: QEPB0276
Trigger mode: 0
Integration Time (sec): 3.000000E1
Scans to average: 1
Electric dark correction enabled: true
Nonlinearity correction enabled: false
Boxcar width: 0
XAxis mode: Raman Shifts
Number of Pixels in Spectrum: 1044
>>>>>Begin Spectral Data<<<<<
160.701	57.75
184.826	599.75
208.845	2593.75
232.758	2759.75
256.565	2932.75
280.267	3103.75
303.865	3296.75
327.359	3456.75
350.751	3595.75
374.04	4021.75
397.228	4095.75
420.315	6893.75
443.302	4228.75
466.189	3755.75
488.978	3568.75
511.668	2606.75
534.261	1693.75
556.756	1421.75
579.155	1389.75
601.459	1334.75
623.667	1259.75
645.781	2016.75
667.8	1173.75
689.726	1002.75
711.56	944.75
733.301	979.75
754.951	1250.75
776.509	1129.75
797.977	1275.75
819.355	1197.75
840.644	1079.75
861.844	883.75
882.955	775.75
903.979	750.75
924.916	725.75
945.766	715.75
966.529	696.75
987.208	687.75
1007.801	698.75
1028.309	737.75
1048.734	790.75
1069.075	783.75
1089.333	764.75
1109.509	704.75
1129.602	631.75
1149.614	659.75
1169.545	691.75
1189.395	681.75
1209.165	690.75
1228.856	685.75
1248.467	651.75
1268	583.75
1287.455	543.75
1306.832	564.75
1326.132	557.75
1345.354	541.75
1364.501	532.75
1383.572	515.75
1402.567	491.75
1421.487	466.75
1440.333	486.75
1459.104	495.75
1477.802	490.75
1496.426	497.75
1514.978	539.75
1533.457	509.75
1551.864	480.75
1570.199	450.75
1588.464	451.75
1606.657	431.75
1624.78	422.75
1642.834	436.75
1660.817	434.75
1678.732	440.75
1696.577	439.75
1714.355	416.75
1732.064	393.75
1749.705	352.75
1767.28	337.75
1784.787	340.75
1802.228	346.75
1819.603	320.75
1836.913	298.75
1854.156	288.75
1871.335	297.75
1888.449	289.75
1905.499	296.75
1922.485	306.75
1939.408	310.75
1956.267	295.75
1973.063	267.75
1989.797	240.75
2006.469	236.75
2023.078	232.75
2039.627	217.75
2056.114	213.75
2072.54	221.75
2088.906	228.75
2105.211	218.75
2121.457	202.75
2137.643	186.75
2153.77	171.75
2169.838	164.75
2185.848	160.75
2201.799	148.75
2217.693	148.75
2233.529	149.75
2249.307	138.75
2265.029	125.75
2280.694	122.75
2296.302	110.75
2311.854	99.75
2327.351	107.75
2342.792	93.75
2358.178	87.75
2373.508	86.75
2388.785	74.75
2404.007	72.75
2419.174	67.75
2434.289	70.75
2449.349	58.75
2464.356	49.75
2479.311	52.75
2494.213	55.75
2509.062	49.75
2523.859	45.75
2538.605	45.75
2553.299	40.75
2567.941	40.75
2582.533	31.75
2597.073	39.75
2611.564	24.75
2626.004	13.75
2640.394	16.75
2654.734	15.75
2669.025	2.75
2683.266	0.75
2697.458	-2.25
2711.602	-3.25
2725.697	-15.25
2739.744	-7.25
2753.743	-8.25
2767.695	-9.25
2781.598	-17.25
2795.455	-15.25
2809.264	-25.25
2823.026	-24.25
2836.742	-20.25
2850.412	-27.25
2864.035	-24.25
2877.613	-27.25
2891.145	-35.25
2904.631	-44.25
2918.073	-54.25
2931.469	-48.25
2944.821	-46.25
2958.128	-57.25
2971.39	-53.25
2984.609	-56.25
2997.784	-58.25
3010.915	-63.25
3024.002	-67.25
3037.046	-72.25
3050.048	-66.25
3063.006	-76.25
3075.922	-75.25
3088.795	-70.25
3101.627	-71.25
3114.416	-71.25
3127.163	-74.25
3139.869	-77.25
3152.533	-81.25
3165.157	-82.25
3177.739	-81.25
3190.28	-89.25
3202.781	-89.25
3215.241	-94.25
3227.661	-95.25
3240.041	-87.25
3252.382	-90.25
3264.682	-89.25
3276.943	-94.25
3289.165	-90.25
3301.348	-92.25
3313.492	-99.25
3325.597	-98.25
3337.663	-107.25
3349.691	-105.25
3361.681	-105.25
3373.633	-101.25
3385.547	-98.25
3397.424	-99.25
3409.263	-103.25
3421.065	-108.25
3432.829	-101.25
3444.557	-102.25
3456.247	-105.25
3467.902	-105.25
3479.519	-104.25
3491.101	-105.25
3502.646	-110.25
3514.155	-108.25
3525.629	-113.25
3537.067	-109.25
3548.469	-114.25
3559.837	-107.25
3571.169	-111.25
3582.466	-106.25
3593.728	-111.25
3604.956	-110.25
3616.149	-113.25
3627.307	-115.25
3638.432	-121.25
3649.523	-115.25
3660.579	-118.25
3671.602	-114.25
3682.591	-114.25
3693.547	-113.25
3704.47	-121.25
3715.359	-119.25
3726.216	-121.25
3737.039	-121.25
3747.83	-121.25
3758.589	-124.25
3769.315	-117.25
3780.008	-123.25
3790.67	-116.25
3801.299	-117.25
3811.897	-119.25
3822.463	-115.25
3832.998	-111.25
3843.501	-114.25
3853.973	-112.25
3864.414	-108.25
3874.823	-51.25
3885.202	128.75
3895.55	-88.25
3905.868	-117.25
3916.155	-116.25
3926.411	-122.25
3936.638	-123.25
3946.834	-117.25
3957	-114.25
3967.137	-115.25
3977.244	-121.25
3987.321	-118.25
3997.369	-119.25
4007.388	-112.25
4017.377	-110.25
4027.338	-111.25
4037.269	-118.25
4047.172	-115.25
4057.046	-114.25
4066.891	-118.25
4076.708	-119.25
4086.497	-118.25
4096.257	-120.25
4105.989	73.75
4115.694	47.75
4125.37	-122.25
4135.019	-123.25
4142.237	-125.25