File: Data/Raman/2017-08-29 - Alluminum 2/Aug 29 2017 - Aluminum 2/water 3_RamanShift_3.txt
Data from water 3_RamanShift_3.txt Node

Date: Tue Aug 29 12:28:37 IDT 2017
User: aro
Spectrometer: QEPB0276
Trigger mode: 0
Integration Time (sec): 3.000000E1
Scans to average: 1
Electric dark correction enabled: true
Nonlinearity correction enabled: false
Boxcar width: 0
XAxis mode: Raman Shifts
Number of Pixels in Spectrum: 1044
>>>>>Begin Spectral Data<<<<<
160.701	32.62
184.826	398.62
208.845	1723.62
232.758	1735.62
256.565	1804.62
280.267	1914.62
303.865	2042.62
327.359	2123.62
350.751	2198.62
374.04	2463.62
397.228	2501.62
420.315	3922.62
443.302	2555.62
466.189	2297.62
488.978	2210.62
511.668	1651.62
534.261	1143.62
556.756	988.62
579.155	957.62
601.459	925.62
623.667	873.62
645.781	1267.62
667.8	832.62
689.726	728.62
711.56	703.62
733.301	706.62
754.951	873.62
776.509	806.62
797.977	894.62
819.355	845.62
840.644	790.62
861.844	690.62
882.955	625.62
903.979	590.62
924.916	598.62
945.766	591.62
966.529	579.62
987.208	554.62
1007.801	565.62
1028.309	589.62
1048.734	623.62
1069.075	612.62
1089.333	599.62
1109.509	574.62
1129.602	532.62
1149.614	537.62
1169.545	568.62
1189.395	550.62
1209.165	553.62
1228.856	580.62
1248.467	555.62
1268	501.62
1287.455	484.62
1306.832	497.62
1326.132	496.62
1345.354	486.62
1364.501	483.62
1383.572	475.62
1402.567	442.62
1421.487	428.62
1440.333	443.62
1459.104	444.62
1477.802	451.62
1496.426	472.62
1514.978	490.62
1533.457	473.62
1551.864	454.62
1570.199	429.62
1588.464	416.62
1606.657	407.62
1624.78	384.62
1642.834	398.62
1660.817	404.62
1678.732	400.62
1696.577	416.62
1714.355	409.62
1732.064	382.62
1749.705	342.62
1767.28	322.62
1784.787	318.62
1802.228	338.62
1819.603	317.62
1836.913	296.62
1854.156	296.62
1871.335	300.62
1888.449	309.62
1905.499	297.62
1922.485	310.62
1939.408	313.62
1956.267	307.62
1973.063	270.62
1989.797	250.62
2006.469	244.62
2023.078	235.62
2039.627	228.62
2056.114	229.62
2072.54	223.62
2088.906	249.62
2105.211	239.62
2121.457	221.62
2137.643	202.62
2153.77	200.62
2169.838	175.62
2185.848	181.62
2201.799	170.62
2217.693	166.62
2233.529	164.62
2249.307	158.62
2265.029	154.62
2280.694	135.62
2296.302	136.62
2311.854	125.62
2327.351	143.62
2342.792	120.62
2358.178	114.62
2373.508	112.62
2388.785	109.62
2404.007	103.62
2419.174	105.62
2434.289	100.62
2449.349	91.62
2464.356	88.62
2479.311	88.62
2494.213	82.62
2509.062	80.62
2523.859	75.62
2538.605	78.62
2553.299	74.62
2567.941	77.62
2582.533	70.62
2597.073	64.62
2611.564	74.62
2626.004	55.62
2640.394	55.62
2654.734	49.62
2669.025	44.62
2683.266	42.62
2697.458	28.62
2711.602	29.62
2725.697	23.62
2739.744	28.62
2753.743	28.62
2767.695	30.62
2781.598	21.62
2795.455	22.62
2809.264	9.62
2823.026	17.62
2836.742	24.62
2850.412	15.62
2864.035	14.62
2877.613	6.62
2891.145	0.62
2904.631	-1.38
2918.073	-1.38
2931.469	-5.38
2944.821	-9.38
2958.128	-11.38
2971.39	-9.38
2984.609	-18.38
2997.784	-13.38
3010.915	-17.38
3024.002	-27.38
3037.046	-23.38
3050.048	-31.38
3063.006	-39.38
3075.922	-34.38
3088.795	-32.38
3101.627	-29.38
3114.416	-29.38
3127.163	-27.38
3139.869	-35.38
3152.533	-31.38
3165.157	-46.38
3177.739	-36.38
3190.28	-41.38
3202.781	-46.38
3215.241	-41.38
3227.661	-46.38
3240.041	-48.38
3252.382	-47.38
3264.682	-51.38
3276.943	-52.38
3289.165	-48.38
3301.348	-59.38
3313.492	-56.38
3325.597	-63.38
3337.663	-62.38
3349.691	-59.38
3361.681	-60.38
3373.633	-62.38
3385.547	-60.38
3397.424	-58.38
3409.263	-56.38
3421.065	-59.38
3432.829	-61.38
3444.557	-53.38
3456.247	-65.38
3467.902	-64.38
3479.519	-60.38
3491.101	-62.38
3502.646	-61.38
3514.155	-62.38
3525.629	-69.38
3537.067	-61.38
3548.469	-69.38
3559.837	-63.38
3571.169	-71.38
3582.466	-66.38
3593.728	-67.38
3604.956	-71.38
3616.149	-77.38
3627.307	-76.38
3638.432	-70.38
3649.523	-75.38
3660.579	-74.38
3671.602	-70.38
3682.591	-73.38
3693.547	-74.38
3704.47	-73.38
3715.359	-77.38
3726.216	-76.38
3737.039	-76.38
3747.83	-74.38
3758.589	-70.38
3769.315	-77.38
3780.008	-74.38
3790.67	-70.38
3801.299	-72.38
3811.897	-73.38
3822.463	-73.38
3832.998	-74.38
3843.501	-71.38
3853.973	-70.38
3864.414	-73.38
3874.823	-37.38
3885.202	55.62
3895.55	-63.38
3905.868	-76.38
3916.155	-70.38
3926.411	-78.38
3936.638	-75.38
3946.834	-74.38
3957	-72.38
3967.137	-72.38
3977.244	-74.38
3987.321	-74.38
3997.369	-76.38
4007.388	-73.38
4017.377	-69.38
4027.338	-71.38
4037.269	-74.38
4047.172	-74.38
4057.046	-73.38
4066.891	-83.38
4076.708	-77.38
4086.497	-81.38
4096.257	-75.38
4105.989	47.62
4115.694	34.62
4125.37	-77.38
4135.019	-76.38
4142.237	-77.38