File: Data/Raman/2017-08-29 - Alluminum 2/Aug 29 2017 - Aluminum 2/water 3_RamanShift_1.txt
Data from water 3_RamanShift_1.txt Node

Date: Tue Aug 29 12:28:07 IDT 2017
User: aro
Spectrometer: QEPB0276
Trigger mode: 0
Integration Time (sec): 3.000000E1
Scans to average: 1
Electric dark correction enabled: true
Nonlinearity correction enabled: false
Boxcar width: 0
XAxis mode: Raman Shifts
Number of Pixels in Spectrum: 1044
>>>>>Begin Spectral Data<<<<<
160.701	34.25
184.826	400.25
208.845	1721.25
232.758	1766.25
256.565	1825.25
280.267	1934.25
303.865	2056.25
327.359	2124.25
350.751	2232.25
374.04	2480.25
397.228	2510.25
420.315	3968.25
443.302	2562.25
466.189	2297.25
488.978	2208.25
511.668	1657.25
534.261	1156.25
556.756	991.25
579.155	972.25
601.459	942.25
623.667	884.25
645.781	1291.25
667.8	837.25
689.726	737.25
711.56	721.25
733.301	732.25
754.951	890.25
776.509	819.25
797.977	895.25
819.355	862.25
840.644	790.25
861.844	699.25
882.955	626.25
903.979	604.25
924.916	591.25
945.766	591.25
966.529	575.25
987.208	551.25
1007.801	585.25
1028.309	598.25
1048.734	625.25
1069.075	617.25
1089.333	620.25
1109.509	580.25
1129.602	538.25
1149.614	538.25
1169.545	562.25
1189.395	555.25
1209.165	559.25
1228.856	582.25
1248.467	550.25
1268	500.25
1287.455	483.25
1306.832	512.25
1326.132	501.25
1345.354	487.25
1364.501	483.25
1383.572	488.25
1402.567	447.25
1421.487	437.25
1440.333	453.25
1459.104	465.25
1477.802	447.25
1496.426	465.25
1514.978	506.25
1533.457	482.25
1551.864	445.25
1570.199	435.25
1588.464	417.25
1606.657	393.25
1624.78	404.25
1642.834	402.25
1660.817	414.25
1678.732	409.25
1696.577	429.25
1714.355	406.25
1732.064	385.25
1749.705	352.25
1767.28	330.25
1784.787	325.25
1802.228	344.25
1819.603	324.25
1836.913	307.25
1854.156	293.25
1871.335	299.25
1888.449	311.25
1905.499	307.25
1922.485	319.25
1939.408	328.25
1956.267	309.25
1973.063	269.25
1989.797	254.25
2006.469	239.25
2023.078	240.25
2039.627	232.25
2056.114	237.25
2072.54	237.25
2088.906	249.25
2105.211	240.25
2121.457	218.25
2137.643	202.25
2153.77	195.25
2169.838	180.25
2185.848	179.25
2201.799	173.25
2217.693	167.25
2233.529	168.25
2249.307	175.25
2265.029	155.25
2280.694	139.25
2296.302	134.25
2311.854	127.25
2327.351	145.25
2342.792	115.25
2358.178	114.25
2373.508	116.25
2388.785	99.25
2404.007	101.25
2419.174	101.25
2434.289	99.25
2449.349	88.25
2464.356	82.25
2479.311	81.25
2494.213	85.25
2509.062	88.25
2523.859	77.25
2538.605	82.25
2553.299	79.25
2567.941	80.25
2582.533	82.25
2597.073	73.25
2611.564	72.25
2626.004	59.25
2640.394	55.25
2654.734	47.25
2669.025	38.25
2683.266	47.25
2697.458	33.25
2711.602	24.25
2725.697	22.25
2739.744	19.25
2753.743	36.25
2767.695	34.25
2781.598	27.25
2795.455	23.25
2809.264	18.25
2823.026	18.25
2836.742	24.25
2850.412	14.25
2864.035	10.25
2877.613	7.25
2891.145	4.25
2904.631	-6.75
2918.073	-10.75
2931.469	-6.75
2944.821	-10.75
2958.128	-14.75
2971.39	-18.75
2984.609	-17.75
2997.784	-14.75
3010.915	-18.75
3024.002	-23.75
3037.046	-26.75
3050.048	-30.75
3063.006	-35.75
3075.922	-29.75
3088.795	-37.75
3101.627	-32.75
3114.416	-31.75
3127.163	-36.75
3139.869	-32.75
3152.533	-39.75
3165.157	-37.75
3177.739	-40.75
3190.28	-47.75
3202.781	-47.75
3215.241	-54.75
3227.661	-50.75
3240.041	-43.75
3252.382	-53.75
3264.682	-53.75
3276.943	-53.75
3289.165	-51.75
3301.348	-57.75
3313.492	-56.75
3325.597	-59.75
3337.663	-71.75
3349.691	-60.75
3361.681	-59.75
3373.633	-56.75
3385.547	-59.75
3397.424	-58.75
3409.263	-57.75
3421.065	-61.75
3432.829	-60.75
3444.557	-60.75
3456.247	-61.75
3467.902	-66.75
3479.519	-55.75
3491.101	-62.75
3502.646	-62.75
3514.155	-64.75
3525.629	-69.75
3537.067	-64.75
3548.469	-73.75
3559.837	-66.75
3571.169	-75.75
3582.466	-70.75
3593.728	-68.75
3604.956	-72.75
3616.149	-79.75
3627.307	-73.75
3638.432	-71.75
3649.523	-73.75
3660.579	-69.75
3671.602	-72.75
3682.591	-74.75
3693.547	-65.75
3704.47	-75.75
3715.359	-72.75
3726.216	-79.75
3737.039	-76.75
3747.83	-78.75
3758.589	-77.75
3769.315	-77.75
3780.008	-83.75
3790.67	-75.75
3801.299	-77.75
3811.897	-73.75
3822.463	-73.75
3832.998	-65.75
3843.501	-66.75
3853.973	-71.75
3864.414	-71.75
3874.823	-33.75
3885.202	63.25
3895.55	-54.75
3905.868	-74.75
3916.155	-77.75
3926.411	-73.75
3936.638	-79.75
3946.834	-80.75
3957	-73.75
3967.137	-73.75
3977.244	-79.75
3987.321	-73.75
3997.369	-74.75
4007.388	-71.75
4017.377	-71.75
4027.338	-68.75
4037.269	-72.75
4047.172	-70.75
4057.046	-67.75
4066.891	-73.75
4076.708	-74.75
4086.497	-69.75
4096.257	-74.75
4105.989	51.25
4115.694	34.25
4125.37	-74.75
4135.019	-76.75
4142.237	-79.75