File: Data/Raman/2017-08-29 - Alluminum 2/Aug 29 2017 - Aluminum 2/water 2_RamanShift_3.txt
Data from water 2_RamanShift_3.txt Node

Date: Tue Aug 29 12:05:37 IDT 2017
User: aro
Spectrometer: QEPB0276
Trigger mode: 0
Integration Time (sec): 3.000000E1
Scans to average: 1
Electric dark correction enabled: true
Nonlinearity correction enabled: false
Boxcar width: 0
XAxis mode: Raman Shifts
Number of Pixels in Spectrum: 1044
>>>>>Begin Spectral Data<<<<<
160.701	35.25
184.826	420.25
208.845	1823.25
232.758	1948.25
256.565	2085.25
280.267	2258.25
303.865	2432.25
327.359	2543.25
350.751	2670.25
374.04	2950.25
397.228	2983.25
420.315	4690.25
443.302	3080.25
466.189	2779.25
488.978	2653.25
511.668	2006.25
534.261	1413.25
556.756	1227.25
579.155	1204.25
601.459	1166.25
623.667	1110.25
645.781	1561.25
667.8	1046.25
689.726	934.25
711.56	900.25
733.301	916.25
754.951	1090.25
776.509	1024.25
797.977	1118.25
819.355	1060.25
840.644	987.25
861.844	886.25
882.955	800.25
903.979	770.25
924.916	769.25
945.766	760.25
966.529	746.25
987.208	719.25
1007.801	729.25
1028.309	771.25
1048.734	793.25
1069.075	792.25
1089.333	773.25
1109.509	743.25
1129.602	675.25
1149.614	693.25
1169.545	720.25
1189.395	706.25
1209.165	715.25
1228.856	728.25
1248.467	702.25
1268	635.25
1287.455	611.25
1306.832	640.25
1326.132	644.25
1345.354	592.25
1364.501	602.25
1383.572	605.25
1402.567	558.25
1421.487	542.25
1440.333	554.25
1459.104	568.25
1477.802	548.25
1496.426	571.25
1514.978	597.25
1533.457	583.25
1551.864	555.25
1570.199	538.25
1588.464	524.25
1606.657	503.25
1624.78	490.25
1642.834	492.25
1660.817	488.25
1678.732	509.25
1696.577	504.25
1714.355	507.25
1732.064	470.25
1749.705	437.25
1767.28	409.25
1784.787	412.25
1802.228	431.25
1819.603	412.25
1836.913	387.25
1854.156	366.25
1871.335	381.25
1888.449	378.25
1905.499	376.25
1922.485	390.25
1939.408	399.25
1956.267	389.25
1973.063	342.25
1989.797	324.25
2006.469	322.25
2023.078	298.25
2039.627	289.25
2056.114	289.25
2072.54	302.25
2088.906	313.25
2105.211	296.25
2121.457	283.25
2137.643	263.25
2153.77	250.25
2169.838	237.25
2185.848	224.25
2201.799	221.25
2217.693	224.25
2233.529	222.25
2249.307	211.25
2265.029	206.25
2280.694	188.25
2296.302	173.25
2311.854	168.25
2327.351	180.25
2342.792	158.25
2358.178	145.25
2373.508	156.25
2388.785	144.25
2404.007	146.25
2419.174	131.25
2434.289	126.25
2449.349	124.25
2464.356	103.25
2479.311	113.25
2494.213	119.25
2509.062	113.25
2523.859	110.25
2538.605	110.25
2553.299	114.25
2567.941	104.25
2582.533	97.25
2597.073	99.25
2611.564	94.25
2626.004	85.25
2640.394	78.25
2654.734	72.25
2669.025	60.25
2683.266	68.25
2697.458	51.25
2711.602	40.25
2725.697	42.25
2739.744	45.25
2753.743	44.25
2767.695	55.25
2781.598	43.25
2795.455	39.25
2809.264	32.25
2823.026	36.25
2836.742	35.25
2850.412	29.25
2864.035	28.25
2877.613	24.25
2891.145	18.25
2904.631	6.25
2918.073	1.25
2931.469	-1.75
2944.821	-7.75
2958.128	-7.75
2971.39	-13.75
2984.609	-12.75
2997.784	-3.75
3010.915	-8.75
3024.002	-15.75
3037.046	-22.75
3050.048	-25.75
3063.006	-31.75
3075.922	-28.75
3088.795	-28.75
3101.627	-26.75
3114.416	-28.75
3127.163	-30.75
3139.869	-30.75
3152.533	-36.75
3165.157	-43.75
3177.739	-41.75
3190.28	-49.75
3202.781	-49.75
3215.241	-49.75
3227.661	-55.75
3240.041	-46.75
3252.382	-49.75
3264.682	-55.75
3276.943	-52.75
3289.165	-53.75
3301.348	-57.75
3313.492	-59.75
3325.597	-60.75
3337.663	-68.75
3349.691	-63.75
3361.681	-67.75
3373.633	-68.75
3385.547	-64.75
3397.424	-56.75
3409.263	-66.75
3421.065	-63.75
3432.829	-64.75
3444.557	-62.75
3456.247	-65.75
3467.902	-74.75
3479.519	-67.75
3491.101	-71.75
3502.646	-66.75
3514.155	-69.75
3525.629	-72.75
3537.067	-72.75
3548.469	-71.75
3559.837	-62.75
3571.169	-76.75
3582.466	-68.75
3593.728	-69.75
3604.956	-71.75
3616.149	-83.75
3627.307	-78.75
3638.432	-74.75
3649.523	-78.75
3660.579	-75.75
3671.602	-81.75
3682.591	-78.75
3693.547	-76.75
3704.47	-80.75
3715.359	-75.75
3726.216	-83.75
3737.039	-77.75
3747.83	-81.75
3758.589	-81.75
3769.315	-82.75
3780.008	-92.75
3790.67	-79.75
3801.299	-83.75
3811.897	-78.75
3822.463	-76.75
3832.998	-79.75
3843.501	-75.75
3853.973	-73.75
3864.414	-79.75
3874.823	-36.75
3885.202	81.25
3895.55	-58.75
3905.868	-78.75
3916.155	-83.75
3926.411	-79.75
3936.638	-85.75
3946.834	-81.75
3957	-73.75
3967.137	-79.75
3977.244	-79.75
3987.321	-76.75
3997.369	-78.75
4007.388	-70.75
4017.377	-72.75
4027.338	-75.75
4037.269	-76.75
4047.172	-77.75
4057.046	-79.75
4066.891	-84.75
4076.708	-85.75
4086.497	-82.75
4096.257	-82.75
4105.989	49.25
4115.694	36.25
4125.37	-81.75
4135.019	-82.75
4142.237	-87.75