File: Data/Raman/2017-08-29 - Alluminum 2/Aug 29 2017 - Aluminum 2/water 5_RamanShift_1.txt
Data from water 5_RamanShift_1.txt Node

Date: Tue Aug 29 12:49:07 IDT 2017
User: aro
Spectrometer: QEPB0276
Trigger mode: 0
Integration Time (sec): 3.000000E1
Scans to average: 1
Electric dark correction enabled: true
Nonlinearity correction enabled: false
Boxcar width: 0
XAxis mode: Raman Shifts
Number of Pixels in Spectrum: 1044
>>>>>Begin Spectral Data<<<<<
160.701	38.88
184.826	443.88
208.845	1929.88
232.758	2065.88
256.565	2244.88
280.267	2436.88
303.865	2600.88
327.359	2755.88
350.751	2881.88
374.04	3183.88
397.228	3239.88
420.315	5036.88
443.302	3324.88
466.189	3021.88
488.978	2900.88
511.668	2132.88
534.261	1478.88
556.756	1294.88
579.155	1258.88
601.459	1211.88
623.667	1132.88
645.781	1625.88
667.8	1087.88
689.726	961.88
711.56	918.88
733.301	953.88
754.951	1151.88
776.509	1061.88
797.977	1194.88
819.355	1120.88
840.644	1045.88
861.844	905.88
882.955	824.88
903.979	818.88
924.916	791.88
945.766	769.88
966.529	751.88
987.208	744.88
1007.801	753.88
1028.309	808.88
1048.734	840.88
1069.075	832.88
1089.333	801.88
1109.509	786.88
1129.602	709.88
1149.614	723.88
1169.545	753.88
1189.395	744.88
1209.165	757.88
1228.856	771.88
1248.467	745.88
1268	682.88
1287.455	650.88
1306.832	659.88
1326.132	656.88
1345.354	627.88
1364.501	619.88
1383.572	605.88
1402.567	588.88
1421.487	566.88
1440.333	577.88
1459.104	592.88
1477.802	572.88
1496.426	592.88
1514.978	626.88
1533.457	606.88
1551.864	578.88
1570.199	552.88
1588.464	538.88
1606.657	525.88
1624.78	499.88
1642.834	503.88
1660.817	524.88
1678.732	516.88
1696.577	512.88
1714.355	509.88
1732.064	482.88
1749.705	437.88
1767.28	414.88
1784.787	407.88
1802.228	422.88
1819.603	391.88
1836.913	367.88
1854.156	372.88
1871.335	377.88
1888.449	374.88
1905.499	369.88
1922.485	391.88
1939.408	394.88
1956.267	379.88
1973.063	342.88
1989.797	312.88
2006.469	309.88
2023.078	293.88
2039.627	283.88
2056.114	274.88
2072.54	291.88
2088.906	306.88
2105.211	288.88
2121.457	268.88
2137.643	261.88
2153.77	257.88
2169.838	245.88
2185.848	234.88
2201.799	234.88
2217.693	218.88
2233.529	220.88
2249.307	209.88
2265.029	197.88
2280.694	191.88
2296.302	181.88
2311.854	174.88
2327.351	194.88
2342.792	156.88
2358.178	161.88
2373.508	168.88
2388.785	158.88
2404.007	152.88
2419.174	152.88
2434.289	144.88
2449.349	138.88
2464.356	123.88
2479.311	125.88
2494.213	125.88
2509.062	122.88
2523.859	115.88
2538.605	118.88
2553.299	114.88
2567.941	114.88
2582.533	113.88
2597.073	106.88
2611.564	103.88
2626.004	83.88
2640.394	87.88
2654.734	82.88
2669.025	68.88
2683.266	76.88
2697.458	56.88
2711.602	49.88
2725.697	43.88
2739.744	47.88
2753.743	48.88
2767.695	57.88
2781.598	35.88
2795.455	43.88
2809.264	38.88
2823.026	47.88
2836.742	39.88
2850.412	25.88
2864.035	34.88
2877.613	18.88
2891.145	20.88
2904.631	4.88
2918.073	6.88
2931.469	0.88
2944.821	0.88
2958.128	-5.12
2971.39	-7.12
2984.609	-11.12
2997.784	-10.12
3010.915	-15.12
3024.002	-25.12
3037.046	-20.12
3050.048	-28.12
3063.006	-31.12
3075.922	-31.12
3088.795	-34.12
3101.627	-26.12
3114.416	-30.12
3127.163	-35.12
3139.869	-35.12
3152.533	-37.12
3165.157	-41.12
3177.739	-43.12
3190.28	-44.12
3202.781	-47.12
3215.241	-54.12
3227.661	2.88
3240.041	-54.12
3252.382	-57.12
3264.682	-52.12
3276.943	-58.12
3289.165	-53.12
3301.348	-66.12
3313.492	-59.12
3325.597	-69.12
3337.663	-69.12
3349.691	-66.12
3361.681	-63.12
3373.633	-67.12
3385.547	-69.12
3397.424	-63.12
3409.263	-68.12
3421.065	-71.12
3432.829	-72.12
3444.557	-73.12
3456.247	-75.12
3467.902	-77.12
3479.519	-72.12
3491.101	-72.12
3502.646	-76.12
3514.155	-65.12
3525.629	-71.12
3537.067	-77.12
3548.469	-75.12
3559.837	-71.12
3571.169	-77.12
3582.466	-73.12
3593.728	-70.12
3604.956	-79.12
3616.149	-86.12
3627.307	-82.12
3638.432	-82.12
3649.523	-85.12
3660.579	-81.12
3671.602	-84.12
3682.591	-83.12
3693.547	-81.12
3704.47	-88.12
3715.359	-83.12
3726.216	-87.12
3737.039	-90.12
3747.83	-80.12
3758.589	-80.12
3769.315	-87.12
3780.008	-91.12
3790.67	-87.12
3801.299	-85.12
3811.897	-90.12
3822.463	-84.12
3832.998	-80.12
3843.501	-82.12
3853.973	-83.12
3864.414	-88.12
3874.823	-49.12
3885.202	68.88
3895.55	-68.12
3905.868	-89.12
3916.155	-90.12
3926.411	-88.12
3936.638	-89.12
3946.834	-84.12
3957	-82.12
3967.137	-82.12
3977.244	-86.12
3987.321	-84.12
3997.369	-80.12
4007.388	-75.12
4017.377	-80.12
4027.338	-80.12
4037.269	-82.12
4047.172	-84.12
4057.046	-81.12
4066.891	-85.12
4076.708	-83.12
4086.497	-86.12
4096.257	-86.12
4105.989	56.88
4115.694	38.88
4125.37	-89.12
4135.019	-86.12
4142.237	-92.12