File: Data/Raman/2017-08-29 - Alluminum 2/Aug 29 2017 - Aluminum 2/water 4_RamanShift_3.txt
Data from water 4_RamanShift_3.txt Node

Date: Tue Aug 29 12:31:37 IDT 2017
User: aro
Spectrometer: QEPB0276
Trigger mode: 0
Integration Time (sec): 3.000000E1
Scans to average: 1
Electric dark correction enabled: true
Nonlinearity correction enabled: false
Boxcar width: 0
XAxis mode: Raman Shifts
Number of Pixels in Spectrum: 1044
>>>>>Begin Spectral Data<<<<<
160.701	37.25
184.826	393.25
208.845	1751.25
232.758	1768.25
256.565	1856.25
280.267	1922.25
303.865	2032.25
327.359	2101.25
350.751	2186.25
374.04	2410.25
397.228	2454.25
420.315	3984.25
443.302	2529.25
466.189	2277.25
488.978	2149.25
511.668	1641.25
534.261	1111.25
556.756	955.25
579.155	929.25
601.459	902.25
623.667	852.25
645.781	1271.25
667.8	817.25
689.726	718.25
711.56	684.25
733.301	706.25
754.951	848.25
776.509	791.25
797.977	863.25
819.355	826.25
840.644	767.25
861.844	660.25
882.955	590.25
903.979	569.25
924.916	567.25
945.766	557.25
966.529	539.25
987.208	528.25
1007.801	545.25
1028.309	570.25
1048.734	598.25
1069.075	593.25
1089.333	578.25
1109.509	540.25
1129.602	496.25
1149.614	504.25
1169.545	532.25
1189.395	525.25
1209.165	534.25
1228.856	541.25
1248.467	517.25
1268	462.25
1287.455	454.25
1306.832	474.25
1326.132	463.25
1345.354	455.25
1364.501	434.25
1383.572	427.25
1402.567	414.25
1421.487	402.25
1440.333	408.25
1459.104	423.25
1477.802	421.25
1496.426	429.25
1514.978	443.25
1533.457	420.25
1551.864	409.25
1570.199	382.25
1588.464	372.25
1606.657	362.25
1624.78	364.25
1642.834	362.25
1660.817	364.25
1678.732	366.25
1696.577	369.25
1714.355	349.25
1732.064	332.25
1749.705	303.25
1767.28	289.25
1784.787	289.25
1802.228	300.25
1819.603	276.25
1836.913	271.25
1854.156	261.25
1871.335	271.25
1888.449	261.25
1905.499	251.25
1922.485	262.25
1939.408	269.25
1956.267	255.25
1973.063	227.25
1989.797	206.25
2006.469	213.25
2023.078	198.25
2039.627	190.25
2056.114	202.25
2072.54	197.25
2088.906	206.25
2105.211	197.25
2121.457	180.25
2137.643	174.25
2153.77	169.25
2169.838	149.25
2185.848	149.25
2201.799	141.25
2217.693	136.25
2233.529	143.25
2249.307	128.25
2265.029	125.25
2280.694	108.25
2296.302	109.25
2311.854	105.25
2327.351	113.25
2342.792	95.25
2358.178	85.25
2373.508	88.25
2388.785	91.25
2404.007	82.25
2419.174	85.25
2434.289	81.25
2449.349	71.25
2464.356	69.25
2479.311	72.25
2494.213	72.25
2509.062	61.25
2523.859	60.25
2538.605	62.25
2553.299	53.25
2567.941	54.25
2582.533	53.25
2597.073	46.25
2611.564	44.25
2626.004	34.25
2640.394	39.25
2654.734	33.25
2669.025	23.25
2683.266	24.25
2697.458	17.25
2711.602	22.25
2725.697	8.25
2739.744	15.25
2753.743	14.25
2767.695	18.25
2781.598	13.25
2795.455	12.25
2809.264	4.25
2823.026	7.25
2836.742	8.25
2850.412	-2.75
2864.035	4.25
2877.613	-8.75
2891.145	-5.75
2904.631	-14.75
2918.073	-17.75
2931.469	-16.75
2944.821	-23.75
2958.128	-27.75
2971.39	-22.75
2984.609	-29.75
2997.784	-22.75
3010.915	-27.75
3024.002	-33.75
3037.046	-31.75
3050.048	-37.75
3063.006	-40.75
3075.922	-39.75
3088.795	-42.75
3101.627	-42.75
3114.416	-39.75
3127.163	-39.75
3139.869	-40.75
3152.533	-44.75
3165.157	-46.75
3177.739	-48.75
3190.28	-51.75
3202.781	-53.75
3215.241	-53.75
3227.661	-56.75
3240.041	-57.75
3252.382	-55.75
3264.682	-57.75
3276.943	-58.75
3289.165	-56.75
3301.348	-56.75
3313.492	-63.75
3325.597	-61.75
3337.663	-67.75
3349.691	-60.75
3361.681	-60.75
3373.633	-60.75
3385.547	-59.75
3397.424	-60.75
3409.263	-66.75
3421.065	-62.75
3432.829	-68.75
3444.557	-63.75
3456.247	-67.75
3467.902	-68.75
3479.519	-63.75
3491.101	-69.75
3502.646	-66.75
3514.155	-66.75
3525.629	-70.75
3537.067	-69.75
3548.469	-71.75
3559.837	-66.75
3571.169	-69.75
3582.466	-67.75
3593.728	-69.75
3604.956	-68.75
3616.149	-77.75
3627.307	-72.75
3638.432	-73.75
3649.523	-74.75
3660.579	-68.75
3671.602	-73.75
3682.591	-74.75
3693.547	-72.75
3704.47	-83.75
3715.359	-74.75
3726.216	-84.75
3737.039	-81.75
3747.83	-78.75
3758.589	-77.75
3769.315	-72.75
3780.008	-86.75
3790.67	-74.75
3801.299	-77.75
3811.897	-71.75
3822.463	-76.75
3832.998	-73.75
3843.501	-72.75
3853.973	-72.75
3864.414	-75.75
3874.823	-39.75
3885.202	58.25
3895.55	-56.75
3905.868	-76.75
3916.155	-75.75
3926.411	-72.75
3936.638	-77.75
3946.834	-73.75
3957	-74.75
3967.137	-71.75
3977.244	-74.75
3987.321	-75.75
3997.369	-72.75
4007.388	-71.75
4017.377	-72.75
4027.338	-71.75
4037.269	-76.75
4047.172	-72.75
4057.046	-73.75
4066.891	-78.75
4076.708	-79.75
4086.497	-74.75
4096.257	-74.75
4105.989	51.25
4115.694	36.25
4125.37	-76.75
4135.019	-77.75
4142.237	-81.75