File: Data/Raman/2017-08-29 - Alluminum 2/Aug 29 2017 - Aluminum 2/water 4_RamanShift_2.txt
Data from water 4_RamanShift_2.txt Node

Date: Tue Aug 29 12:31:07 IDT 2017
User: aro
Spectrometer: QEPB0276
Trigger mode: 0
Integration Time (sec): 3.000000E1
Scans to average: 1
Electric dark correction enabled: true
Nonlinearity correction enabled: false
Boxcar width: 0
XAxis mode: Raman Shifts
Number of Pixels in Spectrum: 1044
>>>>>Begin Spectral Data<<<<<
160.701	33.62
184.826	392.62
208.845	1746.62
232.758	1796.62
256.565	1839.62
280.267	1903.62
303.865	1997.62
327.359	2107.62
350.751	2188.62
374.04	2426.62
397.228	2453.62
420.315	3974.62
443.302	2534.62
466.189	2277.62
488.978	2173.62
511.668	1626.62
534.261	1109.62
556.756	960.62
579.155	944.62
601.459	918.62
623.667	863.62
645.781	1278.62
667.8	812.62
689.726	718.62
711.56	702.62
733.301	709.62
754.951	861.62
776.509	794.62
797.977	869.62
819.355	828.62
840.644	755.62
861.844	655.62
882.955	582.62
903.979	581.62
924.916	575.62
945.766	559.62
966.529	537.62
987.208	524.62
1007.801	547.62
1028.309	570.62
1048.734	596.62
1069.075	589.62
1089.333	586.62
1109.509	551.62
1129.602	505.62
1149.614	516.62
1169.545	538.62
1189.395	530.62
1209.165	523.62
1228.856	537.62
1248.467	520.62
1268	468.62
1287.455	449.62
1306.832	475.62
1326.132	469.62
1345.354	453.62
1364.501	456.62
1383.572	429.62
1402.567	405.62
1421.487	396.62
1440.333	404.62
1459.104	430.62
1477.802	417.62
1496.426	425.62
1514.978	440.62
1533.457	425.62
1551.864	409.62
1570.199	382.62
1588.464	371.62
1606.657	359.62
1624.78	356.62
1642.834	374.62
1660.817	379.62
1678.732	364.62
1696.577	372.62
1714.355	356.62
1732.064	328.62
1749.705	304.62
1767.28	289.62
1784.787	300.62
1802.228	291.62
1819.603	275.62
1836.913	249.62
1854.156	254.62
1871.335	260.62
1888.449	268.62
1905.499	259.62
1922.485	270.62
1939.408	268.62
1956.267	267.62
1973.063	232.62
1989.797	203.62
2006.469	210.62
2023.078	197.62
2039.627	197.62
2056.114	185.62
2072.54	200.62
2088.906	207.62
2105.211	203.62
2121.457	175.62
2137.643	164.62
2153.77	164.62
2169.838	148.62
2185.848	142.62
2201.799	137.62
2217.693	136.62
2233.529	140.62
2249.307	128.62
2265.029	123.62
2280.694	111.62
2296.302	112.62
2311.854	104.62
2327.351	113.62
2342.792	94.62
2358.178	98.62
2373.508	85.62
2388.785	89.62
2404.007	80.62
2419.174	83.62
2434.289	81.62
2449.349	65.62
2464.356	59.62
2479.311	59.62
2494.213	65.62
2509.062	63.62
2523.859	61.62
2538.605	56.62
2553.299	55.62
2567.941	52.62
2582.533	50.62
2597.073	48.62
2611.564	42.62
2626.004	38.62
2640.394	38.62
2654.734	30.62
2669.025	26.62
2683.266	25.62
2697.458	17.62
2711.602	7.62
2725.697	7.62
2739.744	13.62
2753.743	13.62
2767.695	19.62
2781.598	8.62
2795.455	5.62
2809.264	2.62
2823.026	3.62
2836.742	1.62
2850.412	-2.38
2864.035	4.62
2877.613	-14.38
2891.145	-7.38
2904.631	-18.38
2918.073	-20.38
2931.469	-17.38
2944.821	-26.38
2958.128	-24.38
2971.39	-23.38
2984.609	-31.38
2997.784	-25.38
3010.915	-26.38
3024.002	-39.38
3037.046	-35.38
3050.048	-35.38
3063.006	-39.38
3075.922	-42.38
3088.795	-43.38
3101.627	-37.38
3114.416	-37.38
3127.163	-39.38
3139.869	-41.38
3152.533	-48.38
3165.157	-46.38
3177.739	-46.38
3190.28	-53.38
3202.781	-59.38
3215.241	-59.38
3227.661	-58.38
3240.041	-59.38
3252.382	-54.38
3264.682	-59.38
3276.943	-57.38
3289.165	-52.38
3301.348	-64.38
3313.492	-63.38
3325.597	-64.38
3337.663	-65.38
3349.691	-67.38
3361.681	-60.38
3373.633	-63.38
3385.547	-68.38
3397.424	-62.38
3409.263	-65.38
3421.065	-63.38
3432.829	-64.38
3444.557	-65.38
3456.247	-65.38
3467.902	-73.38
3479.519	-65.38
3491.101	-68.38
3502.646	-68.38
3514.155	-65.38
3525.629	-72.38
3537.067	-72.38
3548.469	-74.38
3559.837	-64.38
3571.169	-75.38
3582.466	-71.38
3593.728	-68.38
3604.956	-74.38
3616.149	-81.38
3627.307	-76.38
3638.432	-72.38
3649.523	-79.38
3660.579	-78.38
3671.602	-76.38
3682.591	-76.38
3693.547	-77.38
3704.47	-78.38
3715.359	-77.38
3726.216	-79.38
3737.039	-76.38
3747.83	-76.38
3758.589	-78.38
3769.315	-74.38
3780.008	-84.38
3790.67	-77.38
3801.299	-72.38
3811.897	-78.38
3822.463	-76.38
3832.998	-72.38
3843.501	-75.38
3853.973	-74.38
3864.414	-72.38
3874.823	-44.38
3885.202	60.62
3895.55	-60.38
3905.868	-75.38
3916.155	-77.38
3926.411	-80.38
3936.638	-79.38
3946.834	-76.38
3957	-78.38
3967.137	-79.38
3977.244	-78.38
3987.321	-77.38
3997.369	-78.38
4007.388	-68.38
4017.377	-72.38
4027.338	-72.38
4037.269	-76.38
4047.172	-74.38
4057.046	-78.38
4066.891	-76.38
4076.708	-76.38
4086.497	-80.38
4096.257	-79.38
4105.989	45.62
4115.694	34.62
4125.37	-78.38
4135.019	-74.38
4142.237	-78.38