File: Data/Raman/2017-08-29 - Alluminum 2/Aug 29 2017 - Aluminum 2/water 3_RamanShift_4.txt
Data from water 3_RamanShift_4.txt Node

Date: Tue Aug 29 12:29:07 IDT 2017
User: aro
Spectrometer: QEPB0276
Trigger mode: 0
Integration Time (sec): 3.000000E1
Scans to average: 1
Electric dark correction enabled: true
Nonlinearity correction enabled: false
Boxcar width: 0
XAxis mode: Raman Shifts
Number of Pixels in Spectrum: 1044
>>>>>Begin Spectral Data<<<<<
160.701	34.12
184.826	395.12
208.845	1693.12
232.758	1737.12
256.565	1810.12
280.267	1894.12
303.865	2035.12
327.359	2131.12
350.751	2205.12
374.04	2442.12
397.228	2472.12
420.315	3931.12
443.302	2539.12
466.189	2317.12
488.978	2200.12
511.668	1637.12
534.261	1121.12
556.756	972.12
579.155	933.12
601.459	918.12
623.667	882.12
645.781	1269.12
667.8	823.12
689.726	729.12
711.56	713.12
733.301	708.12
754.951	868.12
776.509	805.12
797.977	879.12
819.355	836.12
840.644	766.12
861.844	678.12
882.955	618.12
903.979	594.12
924.916	589.12
945.766	572.12
966.529	564.12
987.208	553.12
1007.801	566.12
1028.309	592.12
1048.734	621.12
1069.075	613.12
1089.333	604.12
1109.509	565.12
1129.602	530.12
1149.614	545.12
1169.545	556.12
1189.395	553.12
1209.165	560.12
1228.856	571.12
1248.467	531.12
1268	491.12
1287.455	480.12
1306.832	500.12
1326.132	486.12
1345.354	482.12
1364.501	472.12
1383.572	469.12
1402.567	434.12
1421.487	430.12
1440.333	438.12
1459.104	450.12
1477.802	444.12
1496.426	462.12
1514.978	486.12
1533.457	467.12
1551.864	440.12
1570.199	418.12
1588.464	404.12
1606.657	398.12
1624.78	384.12
1642.834	388.12
1660.817	403.12
1678.732	400.12
1696.577	404.12
1714.355	399.12
1732.064	376.12
1749.705	343.12
1767.28	315.12
1784.787	317.12
1802.228	335.12
1819.603	321.12
1836.913	300.12
1854.156	284.12
1871.335	288.12
1888.449	297.12
1905.499	284.12
1922.485	301.12
1939.408	318.12
1956.267	302.12
1973.063	277.12
1989.797	238.12
2006.469	248.12
2023.078	241.12
2039.627	227.12
2056.114	225.12
2072.54	231.12
2088.906	243.12
2105.211	231.12
2121.457	215.12
2137.643	205.12
2153.77	192.12
2169.838	176.12
2185.848	170.12
2201.799	166.12
2217.693	165.12
2233.529	169.12
2249.307	164.12
2265.029	150.12
2280.694	144.12
2296.302	135.12
2311.854	127.12
2327.351	149.12
2342.792	123.12
2358.178	110.12
2373.508	114.12
2388.785	109.12
2404.007	101.12
2419.174	98.12
2434.289	97.12
2449.349	90.12
2464.356	73.12
2479.311	90.12
2494.213	81.12
2509.062	84.12
2523.859	79.12
2538.605	80.12
2553.299	76.12
2567.941	79.12
2582.533	77.12
2597.073	70.12
2611.564	57.12
2626.004	55.12
2640.394	57.12
2654.734	51.12
2669.025	38.12
2683.266	35.12
2697.458	28.12
2711.602	24.12
2725.697	17.12
2739.744	21.12
2753.743	28.12
2767.695	37.12
2781.598	21.12
2795.455	24.12
2809.264	14.12
2823.026	18.12
2836.742	19.12
2850.412	11.12
2864.035	14.12
2877.613	5.12
2891.145	1.12
2904.631	3.12
2918.073	-2.88
2931.469	-4.88
2944.821	-10.88
2958.128	-8.88
2971.39	-16.88
2984.609	-20.88
2997.784	-11.88
3010.915	-19.88
3024.002	-25.88
3037.046	-28.88
3050.048	-30.88
3063.006	-32.88
3075.922	-36.88
3088.795	-37.88
3101.627	-34.88
3114.416	-31.88
3127.163	-33.88
3139.869	-36.88
3152.533	-44.88
3165.157	-40.88
3177.739	-42.88
3190.28	-42.88
3202.781	-50.88
3215.241	-48.88
3227.661	-48.88
3240.041	-49.88
3252.382	-48.88
3264.682	-45.88
3276.943	-52.88
3289.165	-49.88
3301.348	-50.88
3313.492	-50.88
3325.597	-56.88
3337.663	-67.88
3349.691	-58.88
3361.681	-59.88
3373.633	-54.88
3385.547	-63.88
3397.424	-59.88
3409.263	-59.88
3421.065	-65.88
3432.829	-65.88
3444.557	-56.88
3456.247	-61.88
3467.902	-66.88
3479.519	-61.88
3491.101	-66.88
3502.646	-60.88
3514.155	-60.88
3525.629	-66.88
3537.067	-61.88
3548.469	-69.88
3559.837	-64.88
3571.169	-70.88
3582.466	-64.88
3593.728	-68.88
3604.956	-65.88
3616.149	-75.88
3627.307	-75.88
3638.432	-71.88
3649.523	-75.88
3660.579	-74.88
3671.602	-74.88
3682.591	-71.88
3693.547	-66.88
3704.47	-75.88
3715.359	-67.88
3726.216	-71.88
3737.039	-77.88
3747.83	-72.88
3758.589	-73.88
3769.315	-72.88
3780.008	-78.88
3790.67	-74.88
3801.299	-78.88
3811.897	-77.88
3822.463	-75.88
3832.998	-75.88
3843.501	-74.88
3853.973	-71.88
3864.414	-71.88
3874.823	-32.88
3885.202	66.12
3895.55	-58.88
3905.868	-75.88
3916.155	-72.88
3926.411	-71.88
3936.638	-73.88
3946.834	-69.88
3957	-71.88
3967.137	-68.88
3977.244	-71.88
3987.321	-72.88
3997.369	-74.88
4007.388	-68.88
4017.377	-66.88
4027.338	-67.88
4037.269	-68.88
4047.172	-74.88
4057.046	-72.88
4066.891	-79.88
4076.708	-75.88
4086.497	-76.88
4096.257	-73.88
4105.989	46.12
4115.694	30.12
4125.37	-77.88
4135.019	-77.88
4142.237	-78.88