File: Data/Raman/2017-08-29 - Alluminum 2/Aug 29 2017 - Aluminum 2/water 2_RamanShift_1.txt
Data from water 2_RamanShift_1.txt Node

Date: Tue Aug 29 12:04:37 IDT 2017
User: aro
Spectrometer: QEPB0276
Trigger mode: 0
Integration Time (sec): 3.000000E1
Scans to average: 1
Electric dark correction enabled: true
Nonlinearity correction enabled: false
Boxcar width: 0
XAxis mode: Raman Shifts
Number of Pixels in Spectrum: 1044
>>>>>Begin Spectral Data<<<<<
160.701	36.25
184.826	421.25
208.845	1819.25
232.758	1961.25
256.565	2121.25
280.267	2293.25
303.865	2442.25
327.359	2553.25
350.751	2674.25
374.04	2984.25
397.228	2993.25
420.315	4707.25
443.302	3078.25
466.189	2812.25
488.978	2702.25
511.668	2023.25
534.261	1431.25
556.756	1244.25
579.155	1223.25
601.459	1193.25
623.667	1121.25
645.781	1594.25
667.8	1067.25
689.726	948.25
711.56	920.25
733.301	945.25
754.951	1109.25
776.509	1044.25
797.977	1146.25
819.355	1090.25
840.644	1024.25
861.844	869.25
882.955	810.25
903.979	799.25
924.916	774.25
945.766	772.25
966.529	755.25
987.208	720.25
1007.801	755.25
1028.309	780.25
1048.734	799.25
1069.075	797.25
1089.333	778.25
1109.509	755.25
1129.602	697.25
1149.614	700.25
1169.545	730.25
1189.395	724.25
1209.165	728.25
1228.856	739.25
1248.467	706.25
1268	654.25
1287.455	634.25
1306.832	642.25
1326.132	645.25
1345.354	611.25
1364.501	604.25
1383.572	616.25
1402.567	565.25
1421.487	542.25
1440.333	560.25
1459.104	571.25
1477.802	548.25
1496.426	560.25
1514.978	594.25
1533.457	588.25
1551.864	568.25
1570.199	530.25
1588.464	528.25
1606.657	505.25
1624.78	485.25
1642.834	496.25
1660.817	504.25
1678.732	498.25
1696.577	507.25
1714.355	502.25
1732.064	469.25
1749.705	428.25
1767.28	407.25
1784.787	418.25
1802.228	428.25
1819.603	406.25
1836.913	393.25
1854.156	377.25
1871.335	377.25
1888.449	371.25
1905.499	376.25
1922.485	409.25
1939.408	405.25
1956.267	387.25
1973.063	346.25
1989.797	317.25
2006.469	304.25
2023.078	306.25
2039.627	289.25
2056.114	292.25
2072.54	309.25
2088.906	312.25
2105.211	301.25
2121.457	289.25
2137.643	272.25
2153.77	256.25
2169.838	232.25
2185.848	221.25
2201.799	225.25
2217.693	213.25
2233.529	214.25
2249.307	206.25
2265.029	200.25
2280.694	182.25
2296.302	182.25
2311.854	167.25
2327.351	184.25
2342.792	160.25
2358.178	151.25
2373.508	149.25
2388.785	140.25
2404.007	144.25
2419.174	133.25
2434.289	131.25
2449.349	121.25
2464.356	112.25
2479.311	116.25
2494.213	114.25
2509.062	116.25
2523.859	116.25
2538.605	105.25
2553.299	109.25
2567.941	109.25
2582.533	104.25
2597.073	92.25
2611.564	93.25
2626.004	79.25
2640.394	85.25
2654.734	74.25
2669.025	58.25
2683.266	60.25
2697.458	51.25
2711.602	40.25
2725.697	36.25
2739.744	50.25
2753.743	47.25
2767.695	50.25
2781.598	31.25
2795.455	35.25
2809.264	30.25
2823.026	36.25
2836.742	39.25
2850.412	25.25
2864.035	27.25
2877.613	11.25
2891.145	15.25
2904.631	5.25
2918.073	11.25
2931.469	1.25
2944.821	-5.75
2958.128	-9.75
2971.39	-11.75
2984.609	-17.75
2997.784	-7.75
3010.915	-13.75
3024.002	-25.75
3037.046	-25.75
3050.048	-35.75
3063.006	-30.75
3075.922	-21.75
3088.795	-37.75
3101.627	-25.75
3114.416	-27.75
3127.163	-30.75
3139.869	-31.75
3152.533	-37.75
3165.157	-40.75
3177.739	-42.75
3190.28	-48.75
3202.781	-50.75
3215.241	-53.75
3227.661	-52.75
3240.041	-52.75
3252.382	-48.75
3264.682	-50.75
3276.943	-54.75
3289.165	-52.75
3301.348	-54.75
3313.492	-57.75
3325.597	-67.75
3337.663	-69.75
3349.691	-69.75
3361.681	-62.75
3373.633	-63.75
3385.547	-64.75
3397.424	-58.75
3409.263	-66.75
3421.065	-68.75
3432.829	-66.75
3444.557	-63.75
3456.247	-72.75
3467.902	-74.75
3479.519	-63.75
3491.101	-70.75
3502.646	-70.75
3514.155	-73.75
3525.629	-78.75
3537.067	-71.75
3548.469	-74.75
3559.837	-65.75
3571.169	-73.75
3582.466	-68.75
3593.728	-68.75
3604.956	-76.75
3616.149	-81.75
3627.307	-77.75
3638.432	-79.75
3649.523	-80.75
3660.579	-77.75
3671.602	-77.75
3682.591	-74.75
3693.547	-74.75
3704.47	-82.75
3715.359	-79.75
3726.216	-83.75
3737.039	-80.75
3747.83	-80.75
3758.589	-80.75
3769.315	-83.75
3780.008	-88.75
3790.67	-79.75
3801.299	-78.75
3811.897	-82.75
3822.463	-79.75
3832.998	-78.75
3843.501	-77.75
3853.973	-80.75
3864.414	-73.75
3874.823	-37.75
3885.202	74.25
3895.55	-55.75
3905.868	-75.75
3916.155	-80.75
3926.411	-77.75
3936.638	-86.75
3946.834	-80.75
3957	-82.75
3967.137	-79.75
3977.244	-82.75
3987.321	-76.75
3997.369	-80.75
4007.388	-73.75
4017.377	-73.75
4027.338	-74.75
4037.269	-80.75
4047.172	-72.75
4057.046	-80.75
4066.891	-79.75
4076.708	-84.75
4086.497	-83.75
4096.257	-81.75
4105.989	61.25
4115.694	28.25
4125.37	-84.75
4135.019	-84.75
4142.237	-87.75