File: Data/Raman/2017-08-29 - Alluminum 2/Aug 29 2017 - Aluminum 2/water 1_RamanShift_2.txt
Data from water 1_RamanShift_2.txt Node

Date: Tue Aug 29 12:03:07 IDT 2017
User: aro
Spectrometer: QEPB0276
Trigger mode: 0
Integration Time (sec): 3.000000E1
Scans to average: 1
Electric dark correction enabled: true
Nonlinearity correction enabled: false
Boxcar width: 0
XAxis mode: Raman Shifts
Number of Pixels in Spectrum: 1044
>>>>>Begin Spectral Data<<<<<
160.701	53.25
184.826	590.25
208.845	2583.25
232.758	2746.25
256.565	2911.25
280.267	3064.25
303.865	3299.25
327.359	3382.25
350.751	3562.25
374.04	4002.25
397.228	4078.25
420.315	6813.25
443.302	4166.25
466.189	3732.25
488.978	3535.25
511.668	2568.25
534.261	1680.25
556.756	1408.25
579.155	1374.25
601.459	1327.25
623.667	1256.25
645.781	2021.25
667.8	1162.25
689.726	982.25
711.56	950.25
733.301	958.25
754.951	1234.25
776.509	1115.25
797.977	1258.25
819.355	1188.25
840.644	1062.25
861.844	886.25
882.955	768.25
903.979	737.25
924.916	718.25
945.766	706.25
966.529	688.25
987.208	671.25
1007.801	690.25
1028.309	729.25
1048.734	765.25
1069.075	769.25
1089.333	750.25
1109.509	688.25
1129.602	625.25
1149.614	643.25
1169.545	678.25
1189.395	667.25
1209.165	671.25
1228.856	687.25
1248.467	640.25
1268	568.25
1287.455	537.25
1306.832	555.25
1326.132	552.25
1345.354	534.25
1364.501	533.25
1383.572	522.25
1402.567	475.25
1421.487	467.25
1440.333	485.25
1459.104	493.25
1477.802	481.25
1496.426	499.25
1514.978	540.25
1533.457	506.25
1551.864	470.25
1570.199	452.25
1588.464	447.25
1606.657	425.25
1624.78	432.25
1642.834	424.25
1660.817	446.25
1678.732	434.25
1696.577	434.25
1714.355	427.25
1732.064	386.25
1749.705	355.25
1767.28	333.25
1784.787	334.25
1802.228	344.25
1819.603	314.25
1836.913	299.25
1854.156	293.25
1871.335	295.25
1888.449	300.25
1905.499	295.25
1922.485	305.25
1939.408	299.25
1956.267	297.25
1973.063	256.25
1989.797	229.25
2006.469	233.25
2023.078	230.25
2039.627	217.25
2056.114	212.25
2072.54	216.25
2088.906	225.25
2105.211	215.25
2121.457	196.25
2137.643	192.25
2153.77	180.25
2169.838	162.25
2185.848	151.25
2201.799	145.25
2217.693	142.25
2233.529	143.25
2249.307	132.25
2265.029	128.25
2280.694	112.25
2296.302	111.25
2311.854	128.25
2327.351	108.25
2342.792	92.25
2358.178	81.25
2373.508	138.25
2388.785	81.25
2404.007	81.25
2419.174	69.25
2434.289	67.25
2449.349	54.25
2464.356	46.25
2479.311	49.25
2494.213	48.25
2509.062	53.25
2523.859	50.25
2538.605	50.25
2553.299	41.25
2567.941	40.25
2582.533	40.25
2597.073	32.25
2611.564	33.25
2626.004	19.25
2640.394	17.25
2654.734	7.25
2669.025	7.25
2683.266	3.25
2697.458	-2.75
2711.602	-9.75
2725.697	-18.75
2739.744	-6.75
2753.743	-10.75
2767.695	0.25
2781.598	-17.75
2795.455	-19.75
2809.264	-20.75
2823.026	-15.75
2836.742	-15.75
2850.412	-22.75
2864.035	-26.75
2877.613	-31.75
2891.145	-34.75
2904.631	-39.75
2918.073	-42.75
2931.469	-45.75
2944.821	-49.75
2958.128	-47.75
2971.39	-59.75
2984.609	-59.75
2997.784	-55.75
3010.915	-61.75
3024.002	-64.75
3037.046	-71.75
3050.048	-69.75
3063.006	-80.75
3075.922	-73.75
3088.795	-74.75
3101.627	-72.75
3114.416	-65.75
3127.163	-76.75
3139.869	-74.75
3152.533	-76.75
3165.157	-83.75
3177.739	-80.75
3190.28	-83.75
3202.781	-86.75
3215.241	-86.75
3227.661	-89.75
3240.041	-87.75
3252.382	-89.75
3264.682	-92.75
3276.943	-92.75
3289.165	-90.75
3301.348	-99.75
3313.492	-97.75
3325.597	-99.75
3337.663	-102.75
3349.691	-105.75
3361.681	-100.75
3373.633	-105.75
3385.547	-97.75
3397.424	-96.75
3409.263	-100.75
3421.065	-101.75
3432.829	-96.75
3444.557	-101.75
3456.247	-104.75
3467.902	-107.75
3479.519	-98.75
3491.101	-105.75
3502.646	-106.75
3514.155	-108.75
3525.629	-109.75
3537.067	-111.75
3548.469	-104.75
3559.837	-103.75
3571.169	-103.75
3582.466	-111.75
3593.728	-106.75
3604.956	-106.75
3616.149	-108.75
3627.307	-110.75
3638.432	-117.75
3649.523	-117.75
3660.579	-115.75
3671.602	-109.75
3682.591	-114.75
3693.547	-111.75
3704.47	-121.75
3715.359	-117.75
3726.216	-113.75
3737.039	-117.75
3747.83	-116.75
3758.589	-115.75
3769.315	-118.75
3780.008	-122.75
3790.67	-116.75
3801.299	-114.75
3811.897	-118.75
3822.463	-116.75
3832.998	-116.75
3843.501	-113.75
3853.973	-113.75
3864.414	-114.75
3874.823	-60.75
3885.202	119.25
3895.55	-86.75
3905.868	-110.75
3916.155	-113.75
3926.411	-114.75
3936.638	-124.75
3946.834	-115.75
3957	-113.75
3967.137	-110.75
3977.244	-119.75
3987.321	-114.75
3997.369	-118.75
4007.388	-114.75
4017.377	-116.75
4027.338	-112.75
4037.269	-114.75
4047.172	-117.75
4057.046	-111.75
4066.891	-120.75
4076.708	-115.75
4086.497	-116.75
4096.257	-119.75
4105.989	80.25
4115.694	54.25
4125.37	-117.75
4135.019	-120.75
4142.237	-125.75