File: Data/Raman/2017-08-29 - Alluminum 2/Aug 29 2017 - Aluminum 2/water 4_RamanShift_1.txt
Data from water 4_RamanShift_1.txt Node

Date: Tue Aug 29 12:30:37 IDT 2017
User: aro
Spectrometer: QEPB0276
Trigger mode: 0
Integration Time (sec): 3.000000E1
Scans to average: 1
Electric dark correction enabled: true
Nonlinearity correction enabled: false
Boxcar width: 0
XAxis mode: Raman Shifts
Number of Pixels in Spectrum: 1044
>>>>>Begin Spectral Data<<<<<
160.701	32.38
184.826	400.38
208.845	1761.38
232.758	1797.38
256.565	1852.38
280.267	1935.38
303.865	2041.38
327.359	2105.38
350.751	2192.38
374.04	2455.38
397.228	2471.38
420.315	3990.38
443.302	2553.38
466.189	2282.38
488.978	2170.38
511.668	1635.38
534.261	1136.38
556.756	970.38
579.155	950.38
601.459	919.38
623.667	878.38
645.781	1280.38
667.8	826.38
689.726	724.38
711.56	692.38
733.301	713.38
754.951	867.38
776.509	789.38
797.977	875.38
819.355	845.38
840.644	766.38
861.844	665.38
882.955	607.38
903.979	571.38
924.916	574.38
945.766	568.38
966.529	547.38
987.208	533.38
1007.801	551.38
1028.309	572.38
1048.734	586.38
1069.075	600.38
1089.333	577.38
1109.509	554.38
1129.602	504.38
1149.614	513.38
1169.545	538.38
1189.395	539.38
1209.165	542.38
1228.856	557.38
1248.467	531.38
1268	468.38
1287.455	458.38
1306.832	475.38
1326.132	470.38
1345.354	462.38
1364.501	451.38
1383.572	433.38
1402.567	418.38
1421.487	405.38
1440.333	419.38
1459.104	429.38
1477.802	423.38
1496.426	421.38
1514.978	458.38
1533.457	439.38
1551.864	407.38
1570.199	397.38
1588.464	378.38
1606.657	372.38
1624.78	365.38
1642.834	363.38
1660.817	372.38
1678.732	377.38
1696.577	377.38
1714.355	372.38
1732.064	333.38
1749.705	315.38
1767.28	290.38
1784.787	332.38
1802.228	302.38
1819.603	286.38
1836.913	269.38
1854.156	262.38
1871.335	265.38
1888.449	265.38
1905.499	261.38
1922.485	279.38
1939.408	265.38
1956.267	255.38
1973.063	236.38
1989.797	209.38
2006.469	215.38
2023.078	205.38
2039.627	191.38
2056.114	195.38
2072.54	210.38
2088.906	203.38
2105.211	201.38
2121.457	174.38
2137.643	171.38
2153.77	164.38
2169.838	157.38
2185.848	147.38
2201.799	146.38
2217.693	142.38
2233.529	144.38
2249.307	135.38
2265.029	124.38
2280.694	121.38
2296.302	110.38
2311.854	106.38
2327.351	110.38
2342.792	94.38
2358.178	85.38
2373.508	92.38
2388.785	88.38
2404.007	86.38
2419.174	88.38
2434.289	80.38
2449.349	73.38
2464.356	65.38
2479.311	63.38
2494.213	66.38
2509.062	63.38
2523.859	56.38
2538.605	56.38
2553.299	62.38
2567.941	54.38
2582.533	58.38
2597.073	43.38
2611.564	48.38
2626.004	35.38
2640.394	38.38
2654.734	32.38
2669.025	28.38
2683.266	30.38
2697.458	20.38
2711.602	13.38
2725.697	10.38
2739.744	18.38
2753.743	11.38
2767.695	20.38
2781.598	12.38
2795.455	10.38
2809.264	-0.62
2823.026	7.38
2836.742	10.38
2850.412	0.38
2864.035	2.38
2877.613	-8.62
2891.145	-3.62
2904.631	-14.62
2918.073	-20.62
2931.469	-18.62
2944.821	-22.62
2958.128	-23.62
2971.39	-23.62
2984.609	-30.62
2997.784	-22.62
3010.915	-29.62
3024.002	-35.62
3037.046	-34.62
3050.048	-32.62
3063.006	-44.62
3075.922	-43.62
3088.795	-42.62
3101.627	-35.62
3114.416	-37.62
3127.163	-38.62
3139.869	-40.62
3152.533	-44.62
3165.157	-48.62
3177.739	-51.62
3190.28	-53.62
3202.781	-58.62
3215.241	-55.62
3227.661	-54.62
3240.041	-58.62
3252.382	-54.62
3264.682	-55.62
3276.943	-56.62
3289.165	-62.62
3301.348	-59.62
3313.492	-61.62
3325.597	-70.62
3337.663	-69.62
3349.691	-64.62
3361.681	-59.62
3373.633	-56.62
3385.547	-67.62
3397.424	-58.62
3409.263	-66.62
3421.065	-62.62
3432.829	-67.62
3444.557	-64.62
3456.247	-67.62
3467.902	-68.62
3479.519	-63.62
3491.101	-71.62
3502.646	-69.62
3514.155	-70.62
3525.629	-74.62
3537.067	-69.62
3548.469	-73.62
3559.837	-67.62
3571.169	-70.62
3582.466	-67.62
3593.728	-64.62
3604.956	-71.62
3616.149	-77.62
3627.307	-71.62
3638.432	-73.62
3649.523	-74.62
3660.579	-77.62
3671.602	-72.62
3682.591	-78.62
3693.547	-75.62
3704.47	-82.62
3715.359	-75.62
3726.216	-80.62
3737.039	-82.62
3747.83	-79.62
3758.589	-76.62
3769.315	-80.62
3780.008	-83.62
3790.67	-72.62
3801.299	-77.62
3811.897	-77.62
3822.463	-74.62
3832.998	-71.62
3843.501	-70.62
3853.973	-74.62
3864.414	-69.62
3874.823	-36.62
3885.202	65.38
3895.55	-56.62
3905.868	-75.62
3916.155	-68.62
3926.411	-79.62
3936.638	-78.62
3946.834	-75.62
3957	-76.62
3967.137	-79.62
3977.244	-71.62
3987.321	-79.62
3997.369	-79.62
4007.388	-77.62
4017.377	-75.62
4027.338	-75.62
4037.269	-80.62
4047.172	-73.62
4057.046	-76.62
4066.891	-78.62
4076.708	-74.62
4086.497	-80.62
4096.257	-78.62
4105.989	54.38
4115.694	34.38
4125.37	-76.62
4135.019	-78.62
4142.237	-81.62