File: Data/Raman/2017-08-29 - Alluminum 2/Aug 29 2017 - Aluminum 2/water 2_RamanShift_2.txt
Data from water 2_RamanShift_2.txt Node

Date: Tue Aug 29 12:05:07 IDT 2017
User: aro
Spectrometer: QEPB0276
Trigger mode: 0
Integration Time (sec): 3.000000E1
Scans to average: 1
Electric dark correction enabled: true
Nonlinearity correction enabled: false
Boxcar width: 0
XAxis mode: Raman Shifts
Number of Pixels in Spectrum: 1044
>>>>>Begin Spectral Data<<<<<
160.701	28.88
184.826	426.88
208.845	1799.88
232.758	1946.88
256.565	2101.88
280.267	2252.88
303.865	2430.88
327.359	2540.88
350.751	2653.88
374.04	2945.88
397.228	2997.88
420.315	4720.88
443.302	3075.88
466.189	2782.88
488.978	2678.88
511.668	2017.88
534.261	1401.88
556.756	1222.88
579.155	1208.88
601.459	1164.88
623.667	1119.88
645.781	1567.88
667.8	1029.88
689.726	945.88
711.56	913.88
733.301	930.88
754.951	1094.88
776.509	1027.88
797.977	1129.88
819.355	1084.88
840.644	987.88
861.844	871.88
882.955	809.88
903.979	779.88
924.916	764.88
945.766	746.88
966.529	745.88
987.208	712.88
1007.801	747.88
1028.309	776.88
1048.734	791.88
1069.075	801.88
1089.333	783.88
1109.509	743.88
1129.602	682.88
1149.614	696.88
1169.545	721.88
1189.395	712.88
1209.165	714.88
1228.856	727.88
1248.467	705.88
1268	636.88
1287.455	619.88
1306.832	640.88
1326.132	628.88
1345.354	607.88
1364.501	593.88
1383.572	591.88
1402.567	551.88
1421.487	541.88
1440.333	567.88
1459.104	572.88
1477.802	558.88
1496.426	567.88
1514.978	608.88
1533.457	584.88
1551.864	563.88
1570.199	529.88
1588.464	510.88
1606.657	497.88
1624.78	482.88
1642.834	488.88
1660.817	517.88
1678.732	506.88
1696.577	499.88
1714.355	502.88
1732.064	472.88
1749.705	431.88
1767.28	414.88
1784.787	414.88
1802.228	426.88
1819.603	412.88
1836.913	381.88
1854.156	372.88
1871.335	378.88
1888.449	372.88
1905.499	374.88
1922.485	400.88
1939.408	400.88
1956.267	391.88
1973.063	349.88
1989.797	316.88
2006.469	308.88
2023.078	298.88
2039.627	292.88
2056.114	287.88
2072.54	304.88
2088.906	315.88
2105.211	300.88
2121.457	276.88
2137.643	265.88
2153.77	260.88
2169.838	238.88
2185.848	234.88
2201.799	225.88
2217.693	221.88
2233.529	223.88
2249.307	208.88
2265.029	201.88
2280.694	179.88
2296.302	178.88
2311.854	171.88
2327.351	181.88
2342.792	155.88
2358.178	146.88
2373.508	149.88
2388.785	139.88
2404.007	136.88
2419.174	132.88
2434.289	133.88
2449.349	124.88
2464.356	116.88
2479.311	117.88
2494.213	108.88
2509.062	118.88
2523.859	112.88
2538.605	114.88
2553.299	103.88
2567.941	107.88
2582.533	98.88
2597.073	90.88
2611.564	86.88
2626.004	77.88
2640.394	74.88
2654.734	67.88
2669.025	53.88
2683.266	62.88
2697.458	52.88
2711.602	41.88
2725.697	43.88
2739.744	45.88
2753.743	42.88
2767.695	51.88
2781.598	39.88
2795.455	43.88
2809.264	33.88
2823.026	40.88
2836.742	40.88
2850.412	31.88
2864.035	30.88
2877.613	18.88
2891.145	16.88
2904.631	9.88
2918.073	2.88
2931.469	1.88
2944.821	-3.12
2958.128	-4.12
2971.39	-5.12
2984.609	-13.12
2997.784	-7.12
3010.915	-10.12
3024.002	-20.12
3037.046	-20.12
3050.048	-26.12
3063.006	-30.12
3075.922	-23.12
3088.795	-29.12
3101.627	-24.12
3114.416	-30.12
3127.163	-32.12
3139.869	-28.12
3152.533	-31.12
3165.157	-35.12
3177.739	-39.12
3190.28	-43.12
3202.781	-45.12
3215.241	-45.12
3227.661	-49.12
3240.041	-42.12
3252.382	-52.12
3264.682	-54.12
3276.943	-46.12
3289.165	-55.12
3301.348	-59.12
3313.492	-59.12
3325.597	-62.12
3337.663	-68.12
3349.691	-67.12
3361.681	-55.12
3373.633	-57.12
3385.547	-58.12
3397.424	-57.12
3409.263	-62.12
3421.065	-61.12
3432.829	-61.12
3444.557	-66.12
3456.247	-67.12
3467.902	-69.12
3479.519	-63.12
3491.101	-70.12
3502.646	-70.12
3514.155	-64.12
3525.629	-70.12
3537.067	-68.12
3548.469	-75.12
3559.837	-63.12
3571.169	-69.12
3582.466	-67.12
3593.728	-64.12
3604.956	-73.12
3616.149	-74.12
3627.307	-78.12
3638.432	-80.12
3649.523	-79.12
3660.579	-76.12
3671.602	-76.12
3682.591	-77.12
3693.547	-75.12
3704.47	-85.12
3715.359	-75.12
3726.216	-79.12
3737.039	-72.12
3747.83	-79.12
3758.589	-80.12
3769.315	-4.12
3780.008	-86.12
3790.67	-81.12
3801.299	-76.12
3811.897	-78.12
3822.463	-80.12
3832.998	-79.12
3843.501	-78.12
3853.973	-80.12
3864.414	-75.12
3874.823	-34.12
3885.202	87.88
3895.55	-62.12
3905.868	-74.12
3916.155	-73.12
3926.411	-80.12
3936.638	-81.12
3946.834	-77.12
3957	-78.12
3967.137	-80.12
3977.244	-78.12
3987.321	-79.12
3997.369	-80.12
4007.388	-73.12
4017.377	-78.12
4027.338	-74.12
4037.269	-76.12
4047.172	-77.12
4057.046	-72.12
4066.891	-81.12
4076.708	-80.12
4086.497	-78.12
4096.257	-82.12
4105.989	44.88
4115.694	28.88
4125.37	-81.12
4135.019	-80.12
4142.237	-87.12