File: Data/Raman/2017-10-17 - Joint SERS experiment/ethanol base/silicon_RamanShift_2.txt
Data from silicon_RamanShift_2.txt Node

Date: Tue Oct 17 17:27:54 IDT 2017
User: aro
Spectrometer: QEPB0276
Trigger mode: 0
Integration Time (sec): 5.000000E0
Scans to average: 3
Electric dark correction enabled: true
Nonlinearity correction enabled: false
Boxcar width: 0
XAxis mode: Raman Shifts
Number of Pixels in Spectrum: 1044
>>>>>Begin Spectral Data<<<<<
160.701	-3.21
184.826	123.46
208.845	628.79
232.758	678.46
256.565	713.12
280.267	713.12
303.865	746.46
327.359	716.12
350.751	678.79
374.04	656.46
397.228	626.79
420.315	661.46
443.302	556.46
466.189	473.12
488.978	382.79
511.668	264.46
534.261	640.12
556.756	600.46
579.155	559.12
601.459	507.12
623.667	472.79
645.781	493.12
667.8	478.79
689.726	457.46
711.56	437.79
733.301	420.46
754.951	420.46
776.509	412.79
797.977	402.79
819.355	394.46
840.644	381.46
861.844	377.79
882.955	370.12
903.979	357.79
924.916	359.79
945.766	409.12
966.529	381.79
987.208	351.79
1007.801	326.46
1028.309	318.12
1048.734	308.12
1069.075	296.46
1089.333	296.79
1109.509	290.12
1129.602	277.12
1149.614	270.79
1169.545	271.46
1189.395	262.79
1209.165	259.46
1228.856	261.12
1248.467	259.12
1268	243.79
1287.455	234.79
1306.832	240.12
1326.132	231.46
1345.354	217.46
1364.501	220.46
1383.572	232.12
1402.567	219.79
1421.487	207.46
1440.333	216.46
1459.104	215.12
1477.802	207.46
1496.426	215.46
1514.978	226.79
1533.457	227.12
1551.864	220.46
1570.199	216.12
1588.464	220.46
1606.657	209.79
1624.78	201.79
1642.834	207.79
1660.817	219.79
1678.732	217.46
1696.577	206.79
1714.355	226.46
1732.064	218.12
1749.705	215.79
1767.28	209.12
1784.787	217.12
1802.228	240.46
1819.603	241.46
1836.913	234.12
1854.156	239.46
1871.335	244.79
1888.449	250.46
1905.499	258.12
1922.485	270.79
1939.408	285.46
1956.267	299.12
1973.063	295.46
1989.797	293.46
2006.469	302.79
2023.078	306.12
2039.627	309.12
2056.114	315.79
2072.54	328.79
2088.906	351.12
2105.211	359.46
2121.457	373.46
2137.643	383.79
2153.77	392.12
2169.838	394.12
2185.848	398.12
2201.799	409.79
2217.693	422.46
2233.529	443.46
2249.307	457.46
2265.029	462.79
2280.694	475.46
2296.302	485.46
2311.854	479.79
2327.351	490.12
2342.792	498.79
2358.178	521.46
2373.508	544.79
2388.785	562.79
2404.007	571.12
2419.174	591.46
2434.289	614.12
2449.349	630.12
2464.356	633.79
2479.311	654.79
2494.213	684.12
2509.062	724.12
2523.859	742.79
2538.605	760.79
2553.299	786.46
2567.941	817.12
2582.533	834.46
2597.073	850.79
2611.564	866.46
2626.004	893.79
2640.394	899.12
2654.734	891.46
2669.025	891.12
2683.266	904.46
2697.458	895.12
2711.602	884.12
2725.697	896.79
2739.744	941.12
2753.743	998.46
2767.695	1021.12
2781.598	1032.12
2795.455	1041.79
2809.264	1053.46
2823.026	1050.12
2836.742	1054.12
2850.412	1068.79
2864.035	1089.12
2877.613	1098.12
2891.145	1090.79
2904.631	1071.12
2918.073	1062.79
2931.469	1060.12
2944.821	1065.12
2958.128	1044.12
2971.39	1044.12
2984.609	1062.12
2997.784	1084.79
3010.915	1101.12
3024.002	1068.79
3037.046	1031.12
3050.048	1025.12
3063.006	1024.79
3075.922	1020.46
3088.795	1014.79
3101.627	998.46
3114.416	979.12
3127.163	985.46
3139.869	978.12
3152.533	954.79
3165.157	924.12
3177.739	888.79
3190.28	862.46
3202.781	845.79
3215.241	826.12
3227.661	803.46
3240.041	771.79
3252.382	760.79
3264.682	755.12
3276.943	758.79
3289.165	738.46
3301.348	706.79
3313.492	676.79
3325.597	647.12
3337.663	643.12
3349.691	627.12
3361.681	619.12
3373.633	592.46
3385.547	563.79
3397.424	548.46
3409.263	530.12
3421.065	519.79
3432.829	509.46
3444.557	485.46
3456.247	455.79
3467.902	429.12
3479.519	413.79
3491.101	399.79
3502.646	383.79
3514.155	370.12
3525.629	341.12
3537.067	317.46
3548.469	290.12
3559.837	278.79
3571.169	258.46
3582.466	241.12
3593.728	228.46
3604.956	209.79
3616.149	198.79
3627.307	189.79
3638.432	179.79
3649.523	171.79
3660.579	163.12
3671.602	154.12
3682.591	146.46
3693.547	143.46
3704.47	143.12
3715.359	136.79
3726.216	131.12
3737.039	126.79
3747.83	122.12
3758.589	119.79
3769.315	111.46
3780.008	105.12
3790.67	95.46
3801.299	92.12
3811.897	90.12
3822.463	80.46
3832.998	74.46
3843.501	66.12
3853.973	57.79
3864.414	48.79
3874.823	46.46
3885.202	40.79
3895.55	30.12
3905.868	25.12
3916.155	20.12
3926.411	15.79
3936.638	9.79
3946.834	4.79
3957	4.79
3967.137	3.46
3977.244	4.12
3987.321	4.12
3997.369	2.12
4007.388	3.79
4017.377	-1.21
4027.338	1.79
4037.269	-2.54
4047.172	-3.88
4057.046	-6.88
4066.891	-5.54
4076.708	-7.54
4086.497	-7.54
4096.257	-14.88
4105.989	-9.88
4115.694	-3.21
4125.37	-7.54
4135.019	-14.88
4142.237	-14.88