File: Data/Raman/2017-10-17 - Joint SERS experiment/ethanol base/silicon_RamanShift_4.txt
Data from silicon_RamanShift_4.txt Node

Date: Tue Oct 17 17:30:39 IDT 2017
User: aro
Spectrometer: QEPB0276
Trigger mode: 0
Integration Time (sec): 5.000000E0
Scans to average: 3
Electric dark correction enabled: true
Nonlinearity correction enabled: false
Boxcar width: 0
XAxis mode: Raman Shifts
Number of Pixels in Spectrum: 1044
>>>>>Begin Spectral Data<<<<<
160.701	-1.75
184.826	141.92
208.845	746.92
232.758	844.58
256.565	889.92
280.267	853.92
303.865	838.25
327.359	789.92
350.751	750.58
374.04	722.92
397.228	701.25
420.315	722.25
443.302	630.25
466.189	542.58
488.978	453.58
511.668	336.58
534.261	706.92
556.756	671.92
579.155	625.25
601.459	568.92
623.667	535.58
645.781	559.92
667.8	536.58
689.726	520.58
711.56	501.58
733.301	486.92
754.951	484.92
776.509	478.25
797.977	469.25
819.355	456.58
840.644	452.25
861.844	449.25
882.955	439.25
903.979	430.25
924.916	432.25
945.766	474.92
966.529	451.92
987.208	417.92
1007.801	397.92
1028.309	401.58
1048.734	385.92
1069.075	367.58
1089.333	374.92
1109.509	375.58
1129.602	351.25
1149.614	350.92
1169.545	355.92
1189.395	345.92
1209.165	348.58
1228.856	352.92
1248.467	350.92
1268	333.58
1287.455	327.92
1306.832	339.25
1326.132	340.25
1345.354	316.25
1364.501	318.25
1383.572	342.92
1402.567	317.25
1421.487	307.92
1440.333	312.25
1459.104	305.58
1477.802	300.25
1496.426	304.92
1514.978	328.25
1533.457	326.25
1551.864	316.25
1570.199	302.92
1588.464	307.25
1606.657	300.92
1624.78	280.25
1642.834	282.58
1660.817	281.92
1678.732	277.25
1696.577	265.58
1714.355	288.58
1732.064	277.58
1749.705	275.25
1767.28	265.58
1784.787	273.25
1802.228	300.25
1819.603	297.92
1836.913	286.58
1854.156	288.25
1871.335	302.25
1888.449	305.25
1905.499	309.25
1922.485	321.58
1939.408	340.92
1956.267	349.92
1973.063	343.58
1989.797	343.58
2006.469	350.92
2023.078	354.58
2039.627	349.25
2056.114	361.58
2072.54	375.25
2088.906	396.92
2105.211	407.25
2121.457	415.25
2137.643	432.25
2153.77	428.25
2169.838	432.58
2185.848	437.92
2201.799	441.25
2217.693	462.58
2233.529	479.25
2249.307	496.58
2265.029	501.58
2280.694	508.58
2296.302	517.92
2311.854	520.92
2327.351	513.92
2342.792	528.58
2358.178	555.25
2373.508	576.58
2388.785	592.25
2404.007	605.58
2419.174	618.58
2434.289	638.25
2449.349	653.58
2464.356	658.92
2479.311	683.25
2494.213	709.92
2509.062	743.25
2523.859	766.58
2538.605	782.25
2553.299	811.92
2567.941	830.25
2582.533	852.92
2597.073	864.58
2611.564	886.58
2626.004	906.92
2640.394	906.25
2654.734	909.25
2669.025	900.25
2683.266	915.25
2697.458	901.25
2711.602	896.25
2725.697	903.25
2739.744	943.92
2753.743	999.25
2767.695	1034.58
2781.598	1034.58
2795.455	1047.92
2809.264	1048.58
2823.026	1057.25
2836.742	1057.58
2850.412	1074.58
2864.035	1097.58
2877.613	1105.25
2891.145	1090.92
2904.631	1076.58
2918.073	1065.25
2931.469	1065.92
2944.821	1062.92
2958.128	1040.25
2971.39	1044.25
2984.609	1058.25
2997.784	1087.58
3010.915	1096.92
3024.002	1067.25
3037.046	1033.58
3050.048	1009.92
3063.006	1010.25
3075.922	1018.92
3088.795	1007.25
3101.627	990.25
3114.416	971.92
3127.163	970.25
3139.869	963.92
3152.533	946.58
3165.157	906.92
3177.739	881.58
3190.28	854.58
3202.781	837.25
3215.241	818.92
3227.661	794.58
3240.041	766.25
3252.382	755.92
3264.682	744.92
3276.943	746.58
3289.165	731.58
3301.348	698.58
3313.492	669.25
3325.597	643.92
3337.663	639.25
3349.691	625.58
3361.681	606.58
3373.633	587.25
3385.547	559.92
3397.424	537.92
3409.263	529.25
3421.065	516.92
3432.829	497.58
3444.557	479.58
3456.247	454.58
3467.902	423.58
3479.519	404.58
3491.101	391.92
3502.646	384.58
3514.155	361.25
3525.629	340.92
3537.067	309.92
3548.469	285.25
3559.837	270.25
3571.169	256.92
3582.466	242.58
3593.728	223.25
3604.956	206.58
3616.149	192.58
3627.307	186.25
3638.432	176.25
3649.523	166.92
3660.579	161.25
3671.602	147.58
3682.591	142.25
3693.547	138.92
3704.47	138.58
3715.359	137.58
3726.216	130.58
3737.039	125.92
3747.83	117.25
3758.589	114.25
3769.315	109.92
3780.008	102.25
3790.67	94.92
3801.299	85.25
3811.897	82.25
3822.463	76.58
3832.998	70.92
3843.501	60.25
3853.973	53.92
3864.414	50.58
3874.823	47.92
3885.202	38.58
3895.55	31.58
3905.868	20.58
3916.155	16.58
3926.411	12.92
3936.638	6.58
3946.834	4.25
3957	2.92
3967.137	3.58
3977.244	2.25
3987.321	0.92
3997.369	-1.08
4007.388	1.25
4017.377	-4.08
4027.338	-2.42
4037.269	-2.75
4047.172	-6.75
4057.046	-7.75
4066.891	-8.42
4076.708	-9.08
4086.497	-8.42
4096.257	-17.42
4105.989	-8.42
4115.694	-4.08
4125.37	-9.42
4135.019	-16.75
4142.237	-14.75