File: Data/Raman/2017-10-17 - Joint SERS experiment/ethanol base/silicon_RamanShift_1.txt
Data from silicon_RamanShift_1.txt Node

Date: Tue Oct 17 17:27:09 IDT 2017
User: aro
Spectrometer: QEPB0276
Trigger mode: 0
Integration Time (sec): 5.000000E0
Scans to average: 3
Electric dark correction enabled: true
Nonlinearity correction enabled: false
Boxcar width: 0
XAxis mode: Raman Shifts
Number of Pixels in Spectrum: 1044
>>>>>Begin Spectral Data<<<<<
160.701	-3.04
184.826	121.63
208.845	627.63
232.758	676.29
256.565	700.63
280.267	712.63
303.865	748.96
327.359	716.96
350.751	679.96
374.04	653.29
397.228	627.96
420.315	658.63
443.302	560.63
466.189	475.96
488.978	382.63
511.668	264.29
534.261	647.96
556.756	609.29
579.155	552.63
601.459	506.29
623.667	469.63
645.781	492.29
667.8	478.63
689.726	458.63
711.56	433.96
733.301	418.63
754.951	418.29
776.509	408.96
797.977	406.96
819.355	394.29
840.644	385.29
861.844	376.29
882.955	369.96
903.979	355.96
924.916	362.63
945.766	404.96
966.529	377.29
987.208	350.29
1007.801	320.96
1028.309	319.96
1048.734	308.29
1069.075	291.29
1089.333	295.29
1109.509	292.29
1129.602	271.63
1149.614	269.29
1169.545	272.96
1189.395	263.29
1209.165	260.63
1228.856	262.96
1248.467	257.96
1268	241.96
1287.455	237.96
1306.832	239.63
1326.132	236.29
1345.354	222.63
1364.501	220.96
1383.572	235.29
1402.567	221.63
1421.487	208.63
1440.333	213.96
1459.104	212.29
1477.802	210.63
1496.426	212.63
1514.978	222.63
1533.457	229.29
1551.864	222.29
1570.199	216.29
1588.464	217.63
1606.657	208.63
1624.78	201.63
1642.834	208.96
1660.817	218.63
1678.732	218.96
1696.577	213.29
1714.355	229.96
1732.064	226.63
1749.705	213.63
1767.28	210.29
1784.787	217.96
1802.228	240.96
1819.603	240.29
1836.913	234.29
1854.156	239.96
1871.335	245.96
1888.449	257.96
1905.499	259.29
1922.485	271.29
1939.408	287.96
1956.267	295.29
1973.063	290.29
1989.797	288.63
2006.469	299.29
2023.078	310.63
2039.627	309.29
2056.114	313.63
2072.54	334.63
2088.906	352.96
2105.211	361.63
2121.457	372.63
2137.643	384.63
2153.77	388.29
2169.838	394.63
2185.848	396.63
2201.799	403.96
2217.693	426.29
2233.529	446.96
2249.307	453.29
2265.029	457.29
2280.694	472.29
2296.302	484.29
2311.854	485.96
2327.351	484.63
2342.792	501.96
2358.178	517.29
2373.508	549.29
2388.785	563.63
2404.007	575.96
2419.174	590.96
2434.289	611.96
2449.349	624.96
2464.356	634.96
2479.311	652.63
2494.213	687.96
2509.062	714.63
2523.859	752.63
2538.605	762.96
2553.299	791.63
2567.941	808.96
2582.533	829.29
2597.073	844.63
2611.564	872.29
2626.004	888.63
2640.394	893.63
2654.734	889.63
2669.025	902.63
2683.266	904.29
2697.458	892.63
2711.602	888.63
2725.697	898.29
2739.744	933.63
2753.743	993.96
2767.695	1018.29
2781.598	1031.63
2795.455	1039.29
2809.264	1050.29
2823.026	1051.63
2836.742	1057.29
2850.412	1072.29
2864.035	1085.29
2877.613	1112.29
2891.145	1089.63
2904.631	1071.29
2918.073	1059.63
2931.469	1060.96
2944.821	1063.96
2958.128	1047.29
2971.39	1051.29
2984.609	1064.29
2997.784	1091.63
3010.915	1100.29
3024.002	1065.96
3037.046	1032.96
3050.048	1022.29
3063.006	1022.29
3075.922	1022.96
3088.795	1004.29
3101.627	1002.29
3114.416	984.96
3127.163	973.29
3139.869	986.29
3152.533	950.96
3165.157	924.63
3177.739	887.63
3190.28	857.96
3202.781	847.63
3215.241	826.29
3227.661	807.96
3240.041	782.63
3252.382	755.63
3264.682	755.96
3276.943	753.63
3289.165	732.29
3301.348	701.96
3313.492	677.63
3325.597	650.96
3337.663	641.96
3349.691	633.29
3361.681	615.63
3373.633	589.29
3385.547	566.63
3397.424	545.63
3409.263	529.29
3421.065	527.63
3432.829	507.63
3444.557	483.29
3456.247	455.96
3467.902	433.29
3479.519	414.96
3491.101	400.29
3502.646	390.63
3514.155	368.29
3525.629	341.29
3537.067	314.63
3548.469	290.96
3559.837	277.29
3571.169	262.96
3582.466	247.29
3593.728	232.96
3604.956	211.63
3616.149	199.63
3627.307	188.29
3638.432	182.63
3649.523	171.96
3660.579	161.63
3671.602	152.96
3682.591	146.29
3693.547	142.29
3704.47	143.63
3715.359	141.63
3726.216	133.63
3737.039	122.96
3747.83	118.29
3758.589	113.96
3769.315	112.63
3780.008	106.96
3790.67	97.96
3801.299	91.63
3811.897	88.63
3822.463	79.96
3832.998	72.29
3843.501	65.29
3853.973	56.63
3864.414	51.96
3874.823	49.29
3885.202	41.96
3895.55	31.63
3905.868	21.96
3916.155	18.29
3926.411	14.29
3936.638	9.29
3946.834	5.96
3957	4.96
3967.137	5.29
3977.244	0.96
3987.321	2.63
3997.369	0.29
4007.388	2.63
4017.377	-1.37
4027.338	-0.71
4037.269	-0.71
4047.172	-3.04
4057.046	-3.71
4066.891	-6.37
4076.708	-6.37
4086.497	-7.37
4096.257	-14.71
4105.989	-8.71
4115.694	-4.37
4125.37	-9.37
4135.019	-14.37
4142.237	-14.37