File: Data/Raman/2017-10-17 - Joint SERS experiment/ethanol base/silicon_RamanShift_3.txt
Data from silicon_RamanShift_3.txt Node

Date: Tue Oct 17 17:29:24 IDT 2017
User: aro
Spectrometer: QEPB0276
Trigger mode: 0
Integration Time (sec): 5.000000E0
Scans to average: 3
Electric dark correction enabled: true
Nonlinearity correction enabled: false
Boxcar width: 0
XAxis mode: Raman Shifts
Number of Pixels in Spectrum: 1044
>>>>>Begin Spectral Data<<<<<
160.701	-3.87
184.826	114.46
208.845	584.13
232.758	636.12
256.565	664.79
280.267	665.79
303.865	704.46
327.359	667.12
350.751	636.79
374.04	619.13
397.228	586.79
420.315	620.79
443.302	526.46
466.189	447.46
488.978	361.79
511.668	249.46
534.261	596.13
556.756	570.79
579.155	521.46
601.459	474.79
623.667	439.79
645.781	462.79
667.8	447.46
689.726	427.46
711.56	402.46
733.301	391.13
754.951	391.46
776.509	383.13
797.977	383.13
819.355	367.46
840.644	364.12
861.844	351.13
882.955	345.12
903.979	330.13
924.916	335.79
945.766	377.46
966.529	354.46
987.208	323.13
1007.801	299.46
1028.309	297.12
1048.734	286.79
1069.075	271.13
1089.333	271.13
1109.509	272.46
1129.602	253.79
1149.614	250.79
1169.545	254.13
1189.395	250.46
1209.165	245.46
1228.856	242.79
1248.467	240.12
1268	228.79
1287.455	220.46
1306.832	222.79
1326.132	215.46
1345.354	201.46
1364.501	207.12
1383.572	220.13
1402.567	204.13
1421.487	195.46
1440.333	201.79
1459.104	196.79
1477.802	190.46
1496.426	197.46
1514.978	209.12
1533.457	211.79
1551.864	205.79
1570.199	199.12
1588.464	204.13
1606.657	193.79
1624.78	192.46
1642.834	198.12
1660.817	200.79
1678.732	204.46
1696.577	197.12
1714.355	211.79
1732.064	207.79
1749.705	196.13
1767.28	197.46
1784.787	203.13
1802.228	226.12
1819.603	227.46
1836.913	218.79
1854.156	223.46
1871.335	233.46
1888.449	241.79
1905.499	243.46
1922.485	260.79
1939.408	270.13
1956.267	281.12
1973.063	277.79
1989.797	279.79
2006.469	287.79
2023.078	294.79
2039.627	294.13
2056.114	297.13
2072.54	316.79
2088.906	336.46
2105.211	338.46
2121.457	353.46
2137.643	362.12
2153.77	375.12
2169.838	370.46
2185.848	377.13
2201.799	384.12
2217.693	399.79
2233.529	423.13
2249.307	435.79
2265.029	443.13
2280.694	451.12
2296.302	458.13
2311.854	458.46
2327.351	462.46
2342.792	474.46
2358.178	489.79
2373.508	517.79
2388.785	532.46
2404.007	548.79
2419.174	561.46
2434.289	577.79
2449.349	599.12
2464.356	611.13
2479.311	622.46
2494.213	649.46
2509.062	681.46
2523.859	712.79
2538.605	732.46
2553.299	757.13
2567.941	778.79
2582.533	787.46
2597.073	803.46
2611.564	825.46
2626.004	847.12
2640.394	841.79
2654.734	851.79
2669.025	850.46
2683.266	852.13
2697.458	841.13
2711.602	845.46
2725.697	855.46
2739.744	903.46
2753.743	942.13
2767.695	976.13
2781.598	982.12
2795.455	988.13
2809.264	993.46
2823.026	1004.79
2836.742	1005.46
2850.412	1017.13
2864.035	1044.13
2877.613	1047.46
2891.145	1038.46
2904.631	1021.46
2918.073	1006.13
2931.469	1013.79
2944.821	1009.12
2958.128	999.13
2971.39	997.46
2984.609	1014.12
2997.784	1045.79
3010.915	1050.13
3024.002	1019.13
3037.046	977.13
3050.048	968.46
3063.006	974.46
3075.922	974.13
3088.795	962.46
3101.627	949.46
3114.416	938.79
3127.163	940.13
3139.869	935.13
3152.533	911.13
3165.157	887.79
3177.739	849.13
3190.28	821.46
3202.781	805.79
3215.241	796.46
3227.661	767.46
3240.041	740.13
3252.382	739.13
3264.682	729.46
3276.943	724.12
3289.165	704.79
3301.348	663.12
3313.492	643.79
3325.597	620.46
3337.663	606.79
3349.691	605.79
3361.681	592.12
3373.633	567.79
3385.547	539.79
3397.424	518.79
3409.263	509.46
3421.065	502.13
3432.829	487.46
3444.557	466.12
3456.247	435.13
3467.902	413.46
3479.519	393.79
3491.101	381.46
3502.646	375.13
3514.155	353.46
3525.629	329.13
3537.067	301.13
3548.469	280.46
3559.837	258.12
3571.169	251.13
3582.466	232.46
3593.728	217.12
3604.956	203.79
3616.149	186.79
3627.307	184.13
3638.432	176.46
3649.523	168.79
3660.579	154.79
3671.602	144.79
3682.591	138.13
3693.547	141.13
3704.47	134.13
3715.359	134.13
3726.216	128.13
3737.039	119.46
3747.83	118.13
3758.589	115.13
3769.315	108.46
3780.008	100.12
3790.67	92.13
3801.299	84.13
3811.897	83.46
3822.463	78.13
3832.998	69.79
3843.501	61.13
3853.973	54.13
3864.414	48.79
3874.823	46.79
3885.202	41.13
3895.55	32.13
3905.868	23.12
3916.155	17.46
3926.411	14.46
3936.638	10.79
3946.834	6.13
3957	5.46
3967.137	3.46
3977.244	2.79
3987.321	5.46
3997.369	4.79
4007.388	4.79
4017.377	0.46
4027.338	1.46
4037.269	-0.54
4047.172	-2.87
4057.046	-8.54
4066.891	-6.21
4076.708	-7.54
4086.497	-2.87
4096.257	-11.87
4105.989	-5.54
4115.694	-3.54
4125.37	-6.21
4135.019	-12.21
4142.237	-13.21