File: Data/Raman/2017-05-all/Water vs plastic background - dipping [2s average 3, LI=1]_RamanShift_00001.txt
Data from Water vs plastic background - dipping [2s average 3, LI=1]_RamanShift_00001.txt Node

Date: Mon May 01 14:23:08 IDT 2017
User: aro
Spectrometer: QEPB0276
Trigger mode: 0
Integration Time (sec): 2.000000E0
Scans to average: 3
Electric dark correction enabled: true
Nonlinearity correction enabled: false
Boxcar width: 0
XAxis mode: Raman Shifts
Number of Pixels in Spectrum: 1044
>>>>>Begin Spectral Data<<<<<
160.701	-1.58
184.826	44.75
208.845	196.75
232.758	170.08
256.565	143.75
280.267	112.08
303.865	98.08
327.359	84.75
350.751	81.08
374.04	82.75
397.228	83.42
420.315	92.08
443.302	86.08
466.189	86.42
488.978	80.75
511.668	76.75
534.261	78.42
556.756	69.08
579.155	65.75
601.459	63.75
623.667	57.42
645.781	65.08
667.8	65.08
689.726	56.08
711.56	56.08
733.301	51.42
754.951	48.75
776.509	47.75
797.977	36.75
819.355	40.75
840.644	41.42
861.844	37.75
882.955	38.42
903.979	36.42
924.916	30.75
945.766	30.75
966.529	28.08
987.208	20.42
1007.801	-28.25
1028.309	16.42
1048.734	14.75
1069.075	19.42
1089.333	20.08
1109.509	20.42
1129.602	21.75
1149.614	18.08
1169.545	18.08
1189.395	12.42
1209.165	13.08
1228.856	19.42
1248.467	19.42
1268	17.08
1287.455	19.08
1306.832	18.08
1326.132	19.08
1345.354	14.75
1364.501	14.42
1383.572	11.42
1402.567	14.42
1421.487	12.75
1440.333	12.75
1459.104	11.75
1477.802	16.42
1496.426	15.08
1514.978	13.08
1533.457	14.08
1551.864	14.08
1570.199	17.75
1588.464	19.08
1606.657	19.08
1624.78	31.08
1642.834	31.75
1660.817	30.75
1678.732	22.75
1696.577	15.08
1714.355	13.08
1732.064	9.75
1749.705	7.08
1767.28	0.42
1784.787	3.75
1802.228	3.42
1819.603	2.75
1836.913	-0.25
1854.156	0.42
1871.335	1.75
1888.449	-2.58
1905.499	-2.25
1922.485	0.75
1939.408	1.42
1956.267	1.08
1973.063	1.42
1989.797	-1.25
2006.469	1.75
2023.078	-1.58
2039.627	0.08
2056.114	5.08
2072.54	4.08
2088.906	2.75
2105.211	3.08
2121.457	3.08
2137.643	1.42
2153.77	2.75
2169.838	0.75
2185.848	2.42
2201.799	1.75
2217.693	3.42
2233.529	0.08
2249.307	0.08
2265.029	-0.58
2280.694	-2.25
2296.302	-2.58
2311.854	0.08
2327.351	-3.25
2342.792	0.75
2358.178	0.08
2373.508	-1.25
2388.785	-3.25
2404.007	-6.25
2419.174	-5.58
2434.289	-1.25
2449.349	-0.58
2464.356	0.42
2479.311	-1.58
2494.213	-5.25
2509.062	-7.25
2523.859	-6.25
2538.605	-4.92
2553.299	-2.92
2567.941	-0.92
2582.533	-3.25
2597.073	-4.58
2611.564	-3.92
2626.004	-3.25
2640.394	-5.25
2654.734	-5.58
2669.025	-2.25
2683.266	-3.58
2697.458	-1.92
2711.602	-2.58
2725.697	-3.58
2739.744	-3.92
2753.743	-2.92
2767.695	-3.58
2781.598	-3.92
2795.455	-2.58
2809.264	-1.92
2823.026	-1.92
2836.742	-0.58
2850.412	-1.25
2864.035	-3.25
2877.613	-1.58
2891.145	-3.92
2904.631	-0.92
2918.073	2.75
2931.469	2.42
2944.821	4.08
2958.128	5.75
2971.39	7.42
2984.609	5.75
2997.784	9.75
3010.915	11.42
3024.002	14.42
3037.046	13.75
3050.048	15.75
3063.006	16.08
3075.922	20.75
3088.795	26.08
3101.627	33.08
3114.416	35.08
3127.163	39.75
3139.869	47.75
3152.533	49.08
3165.157	51.08
3177.739	51.08
3190.28	53.42
3202.781	52.08
3215.241	53.75
3227.661	52.75
3240.041	52.08
3252.382	51.75
3264.682	50.42
3276.943	48.42
3289.165	41.75
3301.348	40.75
3313.492	43.75
3325.597	41.42
3337.663	42.42
3349.691	41.42
3361.681	38.75
3373.633	35.75
3385.547	35.08
3397.424	34.08
3409.263	31.42
3421.065	33.08
3432.829	29.08
3444.557	27.42
3456.247	25.42
3467.902	21.75
3479.519	18.75
3491.101	17.42
3502.646	15.42
3514.155	12.75
3525.629	8.42
3537.067	10.75
3548.469	4.75
3559.837	6.42
3571.169	4.75
3582.466	3.42
3593.728	4.08
3604.956	1.08
3616.149	-0.25
3627.307	-1.25
3638.432	-0.58
3649.523	-1.58
3660.579	-1.58
3671.602	-3.25
3682.591	-3.58
3693.547	-3.25
3704.47	-1.58
3715.359	-3.58
3726.216	-4.92
3737.039	-4.58
3747.83	-7.58
3758.589	-4.58
3769.315	-6.25
3780.008	-2.58
3790.67	-5.25
3801.299	-1.25
3811.897	-4.58
3822.463	-6.58
3832.998	-6.25
3843.501	-6.58
3853.973	-3.58
3864.414	-3.58
3874.823	-4.92
3885.202	-3.58
3895.55	-3.58
3905.868	-3.25
3916.155	-6.25
3926.411	-4.58
3936.638	-4.92
3946.834	-3.92
3957	-3.25
3967.137	-2.92
3977.244	-5.25
3987.321	-6.25
3997.369	-5.25
4007.388	-4.25
4017.377	-3.58
4027.338	-1.58
4037.269	-3.92
4047.172	-4.25
4057.046	-6.58
4066.891	-5.58
4076.708	-4.25
4086.497	-3.58
4096.257	-2.92
4105.989	-0.58
4115.694	-1.92
4125.37	-1.92
4135.019	-5.25
4142.237	-5.92