File: Data/Raman/2017-07-31 - SERS Giorgi/Plain Glass Slide_RamanShift_1.txt
Data from Plain Glass Slide_RamanShift_1.txt Node

Date: Mon Jul 31 11:43:14 IDT 2017
User: aro
Spectrometer: QEPB0276
Trigger mode: 0
Integration Time (sec): 5.000000E0
Scans to average: 3
Electric dark correction enabled: true
Nonlinearity correction enabled: false
Boxcar width: 10
XAxis mode: Raman Shifts
Number of Pixels in Spectrum: 1044
>>>>>Begin Spectral Data<<<<<
160.701	206.4
184.826	282.66
208.845	336.93
232.758	416.66
256.565	528.87
280.267	600.25
303.865	666.12
327.359	724.06
350.751	769.55
374.04	804.11
397.228	809.09
420.315	793.84
443.302	767.39
466.189	736.05
488.978	702.03
511.668	680.52
534.261	664.97
556.756	651.82
579.155	641.66
601.459	634.55
623.667	620.03
645.781	602.17
667.8	584.16
689.726	568.41
711.56	552.87
733.301	541.39
754.951	532.98
776.509	524.65
797.977	518.12
819.355	514.06
840.644	511
861.844	507.81
882.955	511.74
903.979	522.08
924.916	534.28
945.766	551
966.529	582.81
987.208	628.89
1007.801	685.16
1028.309	765.09
1048.734	883.25
1069.075	1031.87
1089.333	1203.93
1109.509	1413.98
1129.602	1663.92
1149.614	1924.78
1169.545	2200.47
1189.395	2509.59
1209.165	2820.33
1228.856	3100.98
1248.467	3429.46
1268	3927.01
1287.455	4634.52
1306.832	5522.01
1326.132	6468.54
1345.354	7306.39
1364.501	7902.71
1383.572	8163.46
1402.567	8113.11
1421.487	7833.32
1440.333	7462.81
1459.104	7079.49
1477.802	6693.46
1496.426	6272.81
1514.978	5866.2
1533.457	5556.78
1551.864	5307.06
1570.199	5063.93
1588.464	4858.81
1606.657	4719.38
1624.78	4600.54
1642.834	4450.06
1660.817	4262.79
1678.732	4053.49
1696.577	3836.68
1714.355	3572.11
1732.064	3309.92
1749.705	3111.39
1767.28	2977.27
1784.787	2841.36
1802.228	2758.41
1819.603	2732.01
1836.913	2717.98
1854.156	2708.17
1871.335	2709.28
1888.449	2686.14
1905.499	2604.44
1922.485	2438.66
1939.408	2209.76
1956.267	1955.08
1973.063	1687.2
1989.797	1422.41
2006.469	1192.74
2023.078	1014.22
2039.627	875.09
2056.114	762.44
2072.54	667.55
2088.906	591.59
2105.211	528.84
2121.457	474.2
2137.643	425.06
2153.77	384.25
2169.838	353.68
2185.848	329.73
2201.799	310.7
2217.693	294.01
2233.529	280.06
2249.307	267.09
2265.029	254.14
2280.694	240.86
2296.302	229.22
2311.854	219.84
2327.351	212.47
2342.792	207.71
2358.178	204.47
2373.508	202.32
2388.785	199.47
2404.007	197.12
2419.174	193.19
2434.289	188.09
2449.349	183.51
2464.356	178.9
2479.311	174.76
2494.213	169.84
2509.062	166.36
2523.859	162.9
2538.605	158.86
2553.299	153.82
2567.941	149.11
2582.533	143.78
2597.073	137.82
2611.564	131.82
2626.004	126.05
2640.394	120.22
2654.734	114.86
2669.025	109.97
2683.266	104.73
2697.458	99.89
2711.602	96.49
2725.697	93.9
2739.744	90.27
2753.743	86.73
2767.695	84.06
2781.598	82.01
2795.455	79.89
2809.264	78.54
2823.026	78.7
2836.742	78.12
2850.412	77.59
2864.035	77.27
2877.613	77.11
2891.145	76.54
2904.631	77.44
2918.073	79.41
2931.469	81.73
2944.821	85.65
2958.128	91.82
2971.39	98.93
2984.609	106.63
2997.784	115.16
3010.915	125.27
3024.002	136.79
3037.046	151.17
3050.048	167.82
3063.006	186.57
3075.922	206.03
3088.795	226.79
3101.627	247.95
3114.416	269.19
3127.163	289.82
3139.869	309.59
3152.533	329.9
3165.157	350.65
3177.739	374.47
3190.28	403.39
3202.781	437.98
3215.241	476.03
3227.661	516.57
3240.041	555.25
3252.382	586.97
3264.682	606.98
3276.943	613.9
3289.165	607.63
3301.348	589.98
3313.492	564.89
3325.597	537.51
3337.663	508.36
3349.691	477.86
3361.681	445.44
3373.633	411.06
3385.547	376.12
3397.424	343.27
3409.263	313.12
3421.065	284.66
3432.829	258.03
3444.557	232.46
3456.247	207.28
3467.902	183.43
3479.519	162.14
3491.101	142.78
3502.646	125.51
3514.155	109.16
3525.629	94.68
3537.067	82
3548.469	71.51
3559.837	62.38
3571.169	55.82
3582.466	49.84
3593.728	44.41
3604.956	39.47
3616.149	35.81
3627.307	31.95
3638.432	28.95
3649.523	26.46
3660.579	24.36
3671.602	21.95
3682.591	19.54
3693.547	17.2
3704.47	14.71
3715.359	12.39
3726.216	10.41
3737.039	8.3
3747.83	6.19
3758.589	4.41
3769.315	3.17
3780.008	1.59
3790.67	-0.08
3801.299	-1.26
3811.897	-1.95
3822.463	-2.78
3832.998	-3.67
3843.501	-4.11
3853.973	-4.46
3864.414	-4.76
3874.823	-5.22
3885.202	-5.48
3895.55	-6
3905.868	-6.72
3916.155	-7.21
3926.411	-7.22
3936.638	-7.7
3946.834	-8.11
3957	-7.88
3967.137	-7.7
3977.244	-8.05
3987.321	-8.07
3997.369	-7.99
4007.388	-8.26
4017.377	-8.18
4027.338	-8.07
4037.269	-8.18
4047.172	-8.68
4057.046	-8.37
4066.891	-8.18
4076.708	-8.99
4086.497	-8.34
4096.257	-7.1
4105.989	-7.34
4115.694	-8.14
4125.37	-7.69
4135.019	-7.9
4142.237	-9.6