File: Data/Raman/Excelled/2016/Pathogens 18Dec2016/Aluminium_RamanShift_12-02-18-865.txt
Data from Aluminium_RamanShift_12-02-18-865.txt Node

Date: Sun Dec 18 12:02:18 IST 2016
User: aro
Spectrometer: QEPB0276
Trigger mode: 0
Integration Time (sec): 5.000000E0
Scans to average: 1
Electric dark correction enabled: true
Nonlinearity correction enabled: false
Boxcar width: 0
XAxis mode: Raman Shifts
Number of Pixels in Spectrum: 1044
>>>>>Begin Spectral Data<<<<<
160.701	6.25
184.826	47.25
208.845	283.25
232.758	308.25
256.565	342.25
280.267	365.25
303.865	392.25
327.359	403.25
350.751	421.25
374.04	432.25
397.228	442.25
420.315	453.25
443.302	458.25
466.189	449.25
488.978	434.25
511.668	379.25
534.261	286.25
556.756	265.25
579.155	264.25
601.459	257.25
623.667	248.25
645.781	236.25
667.8	225.25
689.726	229.25
711.56	224.25
733.301	231.25
754.951	227.25
776.509	236.25
797.977	253.25
819.355	247.25
840.644	240.25
861.844	231.25
882.955	227.25
903.979	222.25
924.916	211.25
945.766	214.25
966.529	217.25
987.208	215.25
1007.801	219.25
1028.309	226.25
1048.734	220.25
1069.075	214.25
1089.333	225.25
1109.509	228.25
1129.602	204.25
1149.614	215.25
1169.545	211.25
1189.395	213.25
1209.165	215.25
1228.856	215.25
1248.467	218.25
1268	210.25
1287.455	200.25
1306.832	204.25
1326.132	216.25
1345.354	212.25
1364.501	210.25
1383.572	189.25
1402.567	187.25
1421.487	192.25
1440.333	188.25
1459.104	200.25
1477.802	201.25
1496.426	200.25
1514.978	212.25
1533.457	205.25
1551.864	194.25
1570.199	195.25
1588.464	181.25
1606.657	190.25
1624.78	173.25
1642.834	178.25
1660.817	193.25
1678.732	195.25
1696.577	196.25
1714.355	184.25
1732.064	173.25
1749.705	169.25
1767.28	162.25
1784.787	167.25
1802.228	176.25
1819.603	165.25
1836.913	148.25
1854.156	153.25
1871.335	153.25
1888.449	165.25
1905.499	160.25
1922.485	170.25
1939.408	169.25
1956.267	161.25
1973.063	149.25
1989.797	146.25
2006.469	140.25
2023.078	139.25
2039.627	135.25
2056.114	137.25
2072.54	137.25
2088.906	139.25
2105.211	130.25
2121.457	133.25
2137.643	133.25
2153.77	122.25
2169.838	117.25
2185.848	112.25
2201.799	111.25
2217.693	109.25
2233.529	111.25
2249.307	111.25
2265.029	102.25
2280.694	96.25
2296.302	103.25
2311.854	93.25
2327.351	88.25
2342.792	99.25
2358.178	94.25
2373.508	87.25
2388.785	87.25
2404.007	88.25
2419.174	80.25
2434.289	73.25
2449.349	84.25
2464.356	82.25
2479.311	76.25
2494.213	77.25
2509.062	77.25
2523.859	79.25
2538.605	76.25
2553.299	72.25
2567.941	72.25
2582.533	67.25
2597.073	72.25
2611.564	68.25
2626.004	65.25
2640.394	61.25
2654.734	52.25
2669.025	58.25
2683.266	53.25
2697.458	51.25
2711.602	53.25
2725.697	53.25
2739.744	51.25
2753.743	49.25
2767.695	47.25
2781.598	45.25
2795.455	40.25
2809.264	43.25
2823.026	36.25
2836.742	37.25
2850.412	37.25
2864.035	37.25
2877.613	32.25
2891.145	28.25
2904.631	31.25
2918.073	32.25
2931.469	25.25
2944.821	28.25
2958.128	24.25
2971.39	24.25
2984.609	25.25
2997.784	24.25
3010.915	22.25
3024.002	19.25
3037.046	15.25
3050.048	14.25
3063.006	16.25
3075.922	13.25
3088.795	11.25
3101.627	10.25
3114.416	7.25
3127.163	10.25
3139.869	8.25
3152.533	11.25
3165.157	6.25
3177.739	1.25
3190.28	6.25
3202.781	4.25
3215.241	3.25
3227.661	-1.75
3240.041	-5.75
3252.382	5.25
3264.682	1.25
3276.943	-2.75
3289.165	-2.75
3301.348	-4.75
3313.492	-0.75
3325.597	-2.75
3337.663	-4.75
3349.691	-2.75
3361.681	-7.75
3373.633	-5.75
3385.547	-3.75
3397.424	-2.75
3409.263	-5.75
3421.065	-7.75
3432.829	-5.75
3444.557	-7.75
3456.247	-8.75
3467.902	-9.75
3479.519	-7.75
3491.101	-6.75
3502.646	-8.75
3514.155	-7.75
3525.629	-11.75
3537.067	-13.75
3548.469	-11.75
3559.837	-8.75
3571.169	-14.75
3582.466	-11.75
3593.728	-13.75
3604.956	-7.75
3616.149	-9.75
3627.307	-10.75
3638.432	-12.75
3649.523	-15.75
3660.579	-14.75
3671.602	-11.75
3682.591	-12.75
3693.547	-14.75
3704.47	-13.75
3715.359	-6.75
3726.216	-15.75
3737.039	-14.75
3747.83	-9.75
3758.589	-14.75
3769.315	-10.75
3780.008	-11.75
3790.67	-14.75
3801.299	-12.75
3811.897	-15.75
3822.463	-11.75
3832.998	-12.75
3843.501	-14.75
3853.973	-13.75
3864.414	-14.75
3874.823	-11.75
3885.202	-0.75
3895.55	-11.75
3905.868	-10.75
3916.155	-17.75
3926.411	-13.75
3936.638	-13.75
3946.834	-15.75
3957	-15.75
3967.137	-9.75
3977.244	-17.75
3987.321	-16.75
3997.369	-13.75
4007.388	-10.75
4017.377	-14.75
4027.338	-15.75
4037.269	-11.75
4047.172	-10.75
4057.046	-11.75
4066.891	-14.75
4076.708	-12.75
4086.497	-15.75
4096.257	-14.75
4105.989	24.25
4115.694	10.25
4125.37	-13.75
4135.019	-11.75
4142.237	-10.75